# ./result/hh_cnexp_0500.txt
# dt = 500 [usec]
# t [usec], V [mV]
0, -65.000000
500, -64.998509
1000, -64.997062
1500, -64.995653
2000, -64.994278
2500, -64.992932
3000, -64.991614
3500, -64.990320
4000, -64.989051
4500, -64.987803
5000, -64.986576
5500, -64.985370
6000, -64.984184
6500, -64.983018
7000, -64.981871
7500, -64.980743
8000, -64.979634
8500, -64.978544
9000, -64.977473
9500, -64.976421
10000, -64.975387
10500, -64.974373
11000, -64.973378
11500, -64.972401
12000, -64.971444
12500, -64.970506
13000, -64.969587
13500, -64.968687
14000, -64.967806
14500, -64.966945
15000, -64.966103
15500, -64.965280
16000, -64.964476
16500, -64.963692
17000, -64.962927
17500, -64.962181
18000, -64.961454
18500, -64.960747
19000, -64.960059
19500, -64.959389
20000, -64.958739
20500, -64.958108
21000, -64.957496
21500, -64.956902
22000, -64.956328
22500, -64.955772
23000, -64.955234
23500, -64.954715
24000, -64.954214
24500, -64.953732
25000, -64.953267
25500, -64.952821
26000, -64.952393
26500, -64.951982
27000, -64.951588
27500, -64.951213
28000, -64.950854
28500, -64.950512
29000, -64.950188
29500, -64.949880
30000, -64.949589
30500, -64.949314
31000, -64.949055
31500, -64.948813
32000, -64.948586
32500, -64.948375
33000, -64.948180
33500, -64.947999
34000, -64.947834
34500, -64.947684
35000, -64.947548
35500, -64.947427
36000, -64.947319
36500, -64.947226
37000, -64.947147
37500, -64.947081
38000, -64.947029
38500, -64.946990
39000, -64.946963
39500, -64.946949
40000, -64.946948
40500, -64.946959
41000, -64.946982
41500, -64.947016
42000, -64.947062
42500, -64.947120
43000, -64.947188
43500, -64.947267
44000, -64.947357
44500, -64.947456
45000, -64.947566
45500, -64.947686
46000, -64.947816
46500, -64.947954
47000, -64.948102
47500, -64.948259
48000, -64.948424
48500, -64.948598
49000, -64.948780
49500, -64.948969
50000, -64.949167
50500, -64.949372
51000, -64.949584
51500, -64.949803
52000, -64.950029
52500, -64.950261
53000, -64.950500
53500, -64.950744
54000, -64.950995
54500, -64.951251
55000, -64.951512
55500, -64.951779
56000, -64.952051
56500, -64.952327
57000, -64.952608
57500, -64.952893
58000, -64.953182
58500, -64.953475
59000, -64.953772
59500, -64.954073
60000, -64.954376
60500, -64.954683
61000, -64.954992
61500, -64.955304
62000, -64.955619
62500, -64.955936
63000, -64.956255
63500, -64.956575
64000, -64.956898
64500, -64.957222
65000, -64.957548
65500, -64.957874
66000, -64.958202
66500, -64.958531
67000, -64.958860
67500, -64.959190
68000, -64.959520
68500, -64.959850
69000, -64.960180
69500, -64.960511
70000, -64.960840
70500, -64.961170
71000, -64.961499
71500, -64.961827
72000, -64.962155
72500, -64.962481
73000, -64.962807
73500, -64.963131
74000, -64.963454
74500, -64.963775
75000, -64.964095
75500, -64.964413
76000, -64.964729
76500, -64.965044
77000, -64.965356
77500, -64.965666
78000, -64.965974
78500, -64.966279
79000, -64.966583
79500, -64.966883
80000, -64.967181
80500, -64.967476
81000, -64.967769
81500, -64.968058
82000, -64.968345
82500, -64.968628
83000, -64.968909
83500, -64.969186
84000, -64.969460
84500, -64.969731
85000, -64.969998
85500, -64.970262
86000, -64.970523
86500, -64.970780
87000, -64.971033
87500, -64.971283
88000, -64.971529
88500, -64.971771
89000, -64.972010
89500, -64.972244
90000, -64.972475
90500, -64.972702
91000, -64.972925
91500, -64.973145
92000, -64.973360
92500, -64.973571
93000, -64.973778
93500, -64.973982
94000, -64.974181
94500, -64.974376
95000, -64.974567
95500, -64.974754
96000, -64.974937
96500, -64.975116
97000, -64.975291
97500, -64.975462
98000, -64.975628
98500, -64.975791
99000, -64.975949
99500, -64.976103
100000, -64.976254
100500, -64.976400
101000, -64.976542
101500, -64.976680
102000, -64.976814
102500, -64.976944
103000, -64.977070
103500, -64.977192
104000, -64.977310
104500, -64.977425
105000, -64.977535
105500, -64.977641
106000, -64.977744
106500, -64.977842
107000, -64.977937
107500, -64.978028
108000, -64.978115
108500, -64.978199
109000, -64.978279
109500, -64.978355
110000, -64.978428
110500, -64.978497
111000, -64.978562
111500, -64.978624
112000, -64.978683
112500, -64.978738
113000, -64.978789
113500, -64.978838
114000, -64.978883
114500, -64.978924
115000, -64.978963
115500, -64.978998
116000, -64.979030
116500, -64.979059
117000, -64.979085
117500, -64.979109
118000, -64.979129
118500, -64.979146
119000, -64.979160
119500, -64.979172
120000, -64.979180
120500, -64.979187
121000, -64.979190
121500, -64.979191
122000, -64.979189
122500, -64.979185
123000, -64.979178
123500, -64.979169
124000, -64.979157
124500, -64.979143
125000, -64.979127
125500, -64.979109
126000, -64.979088
126500, -64.979066
127000, -64.979041
127500, -64.979014
128000, -64.978986
128500, -64.978955
129000, -64.978923
129500, -64.978888
130000, -64.978852
130500, -64.978815
131000, -64.978775
131500, -64.978734
132000, -64.978692
132500, -64.978648
133000, -64.978602
133500, -64.978555
134000, -64.978507
134500, -64.978457
135000, -64.978407
135500, -64.978354
136000, -64.978301
136500, -64.978247
137000, -64.978191
137500, -64.978135
138000, -64.978077
138500, -64.978019
139000, -64.977959
139500, -64.977899
140000, -64.977838
140500, -64.977777
141000, -64.977714
141500, -64.977651
142000, -64.977587
142500, -64.977523
143000, -64.977458
143500, -64.977392
144000, -64.977326
144500, -64.977260
145000, -64.977193
145500, -64.977126
146000, -64.977058
146500, -64.976990
147000, -64.976922
147500, -64.976854
148000, -64.976786
148500, -64.976717
149000, -64.976649
149500, -64.976580
150000, -64.976511
150500, -64.976442
151000, -64.976373
151500, -64.976305
152000, -64.976236
152500, -64.976168
153000, -64.976099
153500, -64.976031
154000, -64.975963
154500, -64.975895
155000, -64.975828
155500, -64.975760
156000, -64.975693
156500, -64.975627
157000, -64.975560
157500, -64.975495
158000, -64.975429
158500, -64.975364
159000, -64.975299
159500, -64.975235
160000, -64.975172
160500, -64.975108
161000, -64.975046
161500, -64.974984
162000, -64.974922
162500, -64.974861
163000, -64.974801
163500, -64.974741
164000, -64.974682
164500, -64.974624
165000, -64.974566
165500, -64.974509
166000, -64.974452
166500, -64.974397
167000, -64.974342
167500, -64.974287
168000, -64.974234
168500, -64.974181
169000, -64.974129
169500, -64.974078
170000, -64.974027
170500, -64.973977
171000, -64.973928
171500, -64.973880
172000, -64.973833
172500, -64.973786
173000, -64.973741
173500, -64.973696
174000, -64.973652
174500, -64.973609
175000, -64.973566
175500, -64.973525
176000, -64.973484
176500, -64.973444
177000, -64.973405
177500, -64.973367
178000, -64.973330
178500, -64.973293
179000, -64.973258
179500, -64.973223
180000, -64.973189
180500, -64.973156
181000, -64.973124
181500, -64.973093
182000, -64.973062
182500, -64.973032
183000, -64.973004
183500, -64.972976
184000, -64.972949
184500, -64.972922
185000, -64.972897
185500, -64.972872
186000, -64.972849
186500, -64.972826
187000, -64.972803
187500, -64.972782
188000, -64.972762
188500, -64.972742
189000, -64.972723
189500, -64.972705
190000, -64.972687
190500, -64.972671
191000, -64.972655
191500, -64.972640
192000, -64.972625
192500, -64.972612
193000, -64.972599
193500, -64.972587
194000, -64.972575
194500, -64.972565
195000, -64.972555
195500, -64.972545
196000, -64.972537
196500, -64.972529
197000, -64.972522
197500, -64.972515
198000, -64.972509
198500, -64.972504
199000, -64.972499
199500, -64.972495
200000, -64.972491
200500, -64.972488
201000, -64.972486
201500, -64.972484
202000, -64.972483
202500, -64.972483
203000, -64.972483
203500, -64.972483
204000, -64.972484
204500, -64.972486
205000, -64.972488
205500, -64.972490
206000, -64.972493
206500, -64.972497
207000, -64.972501
207500, -64.972505
208000, -64.972510
208500, -64.972515
209000, -64.972521
209500, -64.972527
210000, -64.972534
210500, -64.972541
211000, -64.972548
211500, -64.972556
212000, -64.972564
212500, -64.972572
213000, -64.972581
213500, -64.972590
214000, -64.972599
214500, -64.972609
215000, -64.972619
215500, -64.972629
216000, -64.972640
216500, -64.972651
217000, -64.972662
217500, -64.972673
218000, -64.972685
218500, -64.972696
219000, -64.972708
219500, -64.972721
220000, -64.972733
220500, -64.972746
221000, -64.972758
221500, -64.972771
222000, -64.972784
222500, -64.972798
223000, -64.972811
223500, -64.972825
224000, -64.972838
224500, -64.972852
225000, -64.972866
225500, -64.972880
226000, -64.972894
226500, -64.972908
227000, -64.972923
227500, -64.972937
228000, -64.972951
228500, -64.972966
229000, -64.972980
229500, -64.972995
230000, -64.973009
230500, -64.973024
231000, -64.973038
231500, -64.973053
232000, -64.973068
232500, -64.973082
233000, -64.973097
233500, -64.973111
234000, -64.973126
234500, -64.973140
235000, -64.973155
235500, -64.973169
236000, -64.973184
236500, -64.973198
237000, -64.973212
237500, -64.973227
238000, -64.973241
238500, -64.973255
239000, -64.973269
239500, -64.973283
240000, -64.973296
240500, -64.973310
241000, -64.973324
241500, -64.973337
242000, -64.973351
242500, -64.973364
243000, -64.973377
243500, -64.973390
244000, -64.973403
244500, -64.973416
245000, -64.973429
245500, -64.973441
246000, -64.973454
246500, -64.973466
247000, -64.973478
247500, -64.973490
248000, -64.973502
248500, -64.973514
249000, -64.973525
249500, -64.973537
250000, -64.973548
250500, -64.973559
251000, -64.973570
251500, -64.973581
252000, -64.973591
252500, -64.973602
253000, -64.973612
253500, -64.973622
254000, -64.973632
254500, -64.973642
255000, -64.973651
255500, -64.973661
256000, -64.973670
256500, -64.973679
257000, -64.973688
257500, -64.973697
258000, -64.973705
258500, -64.973713
259000, -64.973722
259500, -64.973730
260000, -64.973737
260500, -64.973745
261000, -64.973752
261500, -64.973760
262000, -64.973767
262500, -64.973774
263000, -64.973780
263500, -64.973787
264000, -64.973793
264500, -64.973799
265000, -64.973805
265500, -64.973811
266000, -64.973817
266500, -64.973822
267000, -64.973828
267500, -64.973833
268000, -64.973838
268500, -64.973843
269000, -64.973847
269500, -64.973852
270000, -64.973856
270500, -64.973860
271000, -64.973864
271500, -64.973868
272000, -64.973871
272500, -64.973875
273000, -64.973878
273500, -64.973881
274000, -64.973884
274500, -64.973887
275000, -64.973890
275500, -64.973892
276000, -64.973895
276500, -64.973897
277000, -64.973899
277500, -64.973901
278000, -64.973903
278500, -64.973904
279000, -64.973906
279500, -64.973907
280000, -64.973908
280500, -64.973909
281000, -64.973910
281500, -64.973911
282000, -64.973912
282500, -64.973913
283000, -64.973913
283500, -64.973913
284000, -64.973914
284500, -64.973914
285000, -64.973914
285500, -64.973914
286000, -64.973914
286500, -64.973913
287000, -64.973913
287500, -64.973912
288000, -64.973912
288500, -64.973911
289000, -64.973910
289500, -64.973909
290000, -64.973908
290500, -64.973907
291000, -64.973906
291500, -64.973905
292000, -64.973903
292500, -64.973902
293000, -64.973900
293500, -64.973899
294000, -64.973897
294500, -64.973895
295000, -64.973893
295500, -64.973892
296000, -64.973890
296500, -64.973888
297000, -64.973886
297500, -64.973883
298000, -64.973881
298500, -64.973879
299000, -64.973877
299500, -64.973874
300000, -64.973872
300500, -64.973870
301000, -64.973867
301500, -64.973865
302000, -64.973862
302500, -64.973859
303000, -64.973857
303500, -64.973854
304000, -64.973851
304500, -64.973849
305000, -64.973846
305500, -64.973843
306000, -64.973840
306500, -64.973837
307000, -64.973835
307500, -64.973832
308000, -64.973829
308500, -64.973826
309000, -64.973823
309500, -64.973820
310000, -64.973817
310500, -64.973814
311000, -64.973811
311500, -64.973808
312000, -64.973805
312500, -64.973802
313000, -64.973799
313500, -64.973796
314000, -64.973793
314500, -64.973790
315000, -64.973787
315500, -64.973784
316000, -64.973781
316500, -64.973778
317000, -64.973775
317500, -64.973772
318000, -64.973769
318500, -64.973766
319000, -64.973764
319500, -64.973761
320000, -64.973758
320500, -64.973755
321000, -64.973752
321500, -64.973749
322000, -64.973746
322500, -64.973744
323000, -64.973741
323500, -64.973738
324000, -64.973735
324500, -64.973733
325000, -64.973730
325500, -64.973727
326000, -64.973725
326500, -64.973722
327000, -64.973719
327500, -64.973717
328000, -64.973714
328500, -64.973712
329000, -64.973709
329500, -64.973707
330000, -64.973705
330500, -64.973702
331000, -64.973700
331500, -64.973697
332000, -64.973695
332500, -64.973693
333000, -64.973691
333500, -64.973689
334000, -64.973686
334500, -64.973684
335000, -64.973682
335500, -64.973680
336000, -64.973678
336500, -64.973676
337000, -64.973674
337500, -64.973672
338000, -64.973671
338500, -64.973669
339000, -64.973667
339500, -64.973665
340000, -64.973664
340500, -64.973662
341000, -64.973660
341500, -64.973659
342000, -64.973657
342500, -64.973656
343000, -64.973654
343500, -64.973653
344000, -64.973651
344500, -64.973650
345000, -64.973649
345500, -64.973647
346000, -64.973646
346500, -64.973645
347000, -64.973644
347500, -64.973642
348000, -64.973641
348500, -64.973640
349000, -64.973639
349500, -64.973638
350000, -64.973637
350500, -64.973636
351000, -64.973635
351500, -64.973635
352000, -64.973634
352500, -64.973633
353000, -64.973632
353500, -64.973631
354000, -64.973631
354500, -64.973630
355000, -64.973629
355500, -64.973629
356000, -64.973628
356500, -64.973628
357000, -64.973627
357500, -64.973627
358000, -64.973626
358500, -64.973626
359000, -64.973626
359500, -64.973625
360000, -64.973625
360500, -64.973625
361000, -64.973624
361500, -64.973624
362000, -64.973624
362500, -64.973624
363000, -64.973624
363500, -64.973624
364000, -64.973623
364500, -64.973623
365000, -64.973623
365500, -64.973623
366000, -64.973623
366500, -64.973623
367000, -64.973623
367500, -64.973623
368000, -64.973624
368500, -64.973624
369000, -64.973624
369500, -64.973624
370000, -64.973624
370500, -64.973624
371000, -64.973625
371500, -64.973625
372000, -64.973625
372500, -64.973625
373000, -64.973626
373500, -64.973626
374000, -64.973626
374500, -64.973627
375000, -64.973627
375500, -64.973627
376000, -64.973628
376500, -64.973628
377000, -64.973629
377500, -64.973629
378000, -64.973629
378500, -64.973630
379000, -64.973630
379500, -64.973631
380000, -64.973631
380500, -64.973632
381000, -64.973632
381500, -64.973633
382000, -64.973633
382500, -64.973634
383000, -64.973635
383500, -64.973635
384000, -64.973636
384500, -64.973636
385000, -64.973637
385500, -64.973637
386000, -64.973638
386500, -64.973639
387000, -64.973639
387500, -64.973640
388000, -64.973641
388500, -64.973641
389000, -64.973642
389500, -64.973642
390000, -64.973643
390500, -64.973644
391000, -64.973644
391500, -64.973645
392000, -64.973646
392500, -64.973646
393000, -64.973647
393500, -64.973648
394000, -64.973648
394500, -64.973649
395000, -64.973650
395500, -64.973650
396000, -64.973651
396500, -64.973651
397000, -64.973652
397500, -64.973653
398000, -64.973653
398500, -64.973654
399000, -64.973655
399500, -64.973655
400000, -64.973656
400500, -64.973657
401000, -64.973657
401500, -64.973658
402000, -64.973658
402500, -64.973659
403000, -64.973660
403500, -64.973660
404000, -64.973661
404500, -64.973662
405000, -64.973662
405500, -64.973663
406000, -64.973663
406500, -64.973664
407000, -64.973665
407500, -64.973665
408000, -64.973666
408500, -64.973666
409000, -64.973667
409500, -64.973667
410000, -64.973668
410500, -64.973668
411000, -64.973669
411500, -64.973669
412000, -64.973670
412500, -64.973671
413000, -64.973671
413500, -64.973672
414000, -64.973672
414500, -64.973672
415000, -64.973673
415500, -64.973673
416000, -64.973674
416500, -64.973674
417000, -64.973675
417500, -64.973675
418000, -64.973676
418500, -64.973676
419000, -64.973677
419500, -64.973677
420000, -64.973677
420500, -64.973678
421000, -64.973678
421500, -64.973678
422000, -64.973679
422500, -64.973679
423000, -64.973680
423500, -64.973680
424000, -64.973680
424500, -64.973681
425000, -64.973681
425500, -64.973681
426000, -64.973681
426500, -64.973682
427000, -64.973682
427500, -64.973682
428000, -64.973683
428500, -64.973683
429000, -64.973683
429500, -64.973683
430000, -64.973684
430500, -64.973684
431000, -64.973684
431500, -64.973684
432000, -64.973685
432500, -64.973685
433000, -64.973685
433500, -64.973685
434000, -64.973685
434500, -64.973686
435000, -64.973686
435500, -64.973686
436000, -64.973686
436500, -64.973686
437000, -64.973686
437500, -64.973686
438000, -64.973687
438500, -64.973687
439000, -64.973687
439500, -64.973687
440000, -64.973687
440500, -64.973687
441000, -64.973687
441500, -64.973687
442000, -64.973687
442500, -64.973687
443000, -64.973687
443500, -64.973687
444000, -64.973688
444500, -64.973688
445000, -64.973688
445500, -64.973688
446000, -64.973688
446500, -64.973688
447000, -64.973688
447500, -64.973688
448000, -64.973688
448500, -64.973688
449000, -64.973688
449500, -64.973688
450000, -64.973688
450500, -64.973688
451000, -64.973688
451500, -64.973688
452000, -64.973688
452500, -64.973688
453000, -64.973688
453500, -64.973688
454000, -64.973687
454500, -64.973687
455000, -64.973687
455500, -64.973687
456000, -64.973687
456500, -64.973687
457000, -64.973687
457500, -64.973687
458000, -64.973687
458500, -64.973687
459000, -64.973687
459500, -64.973687
460000, -64.973687
460500, -64.973687
461000, -64.973686
461500, -64.973686
462000, -64.973686
462500, -64.973686
463000, -64.973686
463500, -64.973686
464000, -64.973686
464500, -64.973686
465000, -64.973686
465500, -64.973686
466000, -64.973685
466500, -64.973685
467000, -64.973685
467500, -64.973685
468000, -64.973685
468500, -64.973685
469000, -64.973685
469500, -64.973685
470000, -64.973685
470500, -64.973684
471000, -64.973684
471500, -64.973684
472000, -64.973684
472500, -64.973684
473000, -64.973684
473500, -64.973684
474000, -64.973684
474500, -64.973683
475000, -64.973683
475500, -64.973683
476000, -64.973683
476500, -64.973683
477000, -64.973683
477500, -64.973683
478000, -64.973683
478500, -64.973682
479000, -64.973682
479500, -64.973682
480000, -64.973682
480500, -64.973682
481000, -64.973682
481500, -64.973682
482000, -64.973682
482500, -64.973681
483000, -64.973681
483500, -64.973681
484000, -64.973681
484500, -64.973681
485000, -64.973681
485500, -64.973681
486000, -64.973681
486500, -64.973680
487000, -64.973680
487500, -64.973680
488000, -64.973680
488500, -64.973680
489000, -64.973680
489500, -64.973680
490000, -64.973680
490500, -64.973680
491000, -64.973679
491500, -64.973679
492000, -64.973679
492500, -64.973679
493000, -64.973679
493500, -64.973679
494000, -64.973679
494500, -64.973679
495000, -64.973679
495500, -64.973678
496000, -64.973678
496500, -64.973678
497000, -64.973678
497500, -64.973678
498000, -64.973678
498500, -64.973678
499000, -64.973678
499500, -64.973678
500000, -64.973678
500500, -62.625213
501000, -60.348369
501500, -58.127801
502000, -55.953323
502500, -53.800925
503000, -51.645065
503500, -49.437884
504000, -47.118303
504500, -44.585943
505000, -41.700691
505500, -38.241740
506000, -33.882567
506500, -28.114758
507000, -20.200653
507500, -9.208758
508000, 5.371194
508500, 21.852003
509000, 35.220010
509500, 41.713254
510000, 43.119331
510500, 42.635475
511000, 41.583656
511500, 40.243714
512000, 38.671662
512500, 36.902638
513000, 34.958618
513500, 32.867950
514000, 30.650156
514500, 28.331649
515000, 25.929561
515500, 23.467296
516000, 20.958536
516500, 18.422850
517000, 15.869941
517500, 13.315450
518000, 10.765255
518500, 8.231430
519000, 5.716580
519500, 3.229787
520000, 0.771046
520500, -1.652876
521000, -4.044029
521500, -6.397207
522000, -8.716195
522500, -10.997065
523000, -13.244261
523500, -15.455547
524000, -17.636604
524500, -19.785830
525000, -21.910260
525500, -24.010044
526000, -26.094381
526500, -28.166263
527000, -30.237856
527500, -32.315263
528000, -34.414420
528500, -36.545503
529000, -38.728441
529500, -40.976795
530000, -43.312397
530500, -45.747824
531000, -48.298366
531500, -50.961023
532000, -53.723295
532500, -56.537587
533000, -59.331960
533500, -61.995814
534000, -64.411345
534500, -66.466228
535000, -68.102946
535500, -69.316727
536000, -70.160684
536500, -70.706093
537000, -71.034037
537500, -71.206280
538000, -71.276413
538500, -71.275645
539000, -71.231504
539500, -71.155608
540000, -71.061825
540500, -70.952668
541000, -70.836083
541500, -70.710799
542000, -70.582354
542500, -70.447961
543000, -70.312189
543500, -70.171640
544000, -70.030489
544500, -69.885091
545000, -69.739453
545500, -69.589827
546000, -69.440151
546500, -69.286638
547000, -69.133195
547500, -68.976021
548000, -68.819009
548500, -68.658349
549000, -68.497926
549500, -68.333935
550000, -68.170259
550500, -68.003099
551000, -67.836337
551500, -67.666172
552000, -67.496481
552500, -67.323472
553000, -67.151025
553500, -66.975356
554000, -66.800345
554500, -66.622204
555000, -66.444805
555500, -66.264372
556000, -66.084782
556500, -65.902268
557000, -65.720699
557500, -65.536299
558000, -65.352935
558500, -65.166845
559000, -64.981900
559500, -64.794344
560000, -64.608026
560500, -64.419179
561000, -64.231663
561500, -64.041726
562000, -63.853230
562500, -63.662405
563000, -63.473088
563500, -63.281518
564000, -63.091542
564500, -62.899417
565000, -62.708966
565500, -62.516414
566000, -62.325576
566500, -62.132700
567000, -61.941614
567500, -61.748560
568000, -61.557312
568500, -61.364090
569000, -61.172694
569500, -60.979369
570000, -60.787917
570500, -60.594518
571000, -60.402920
571500, -60.209342
572000, -60.017560
572500, -59.823817
573000, -59.631804
573500, -59.437689
574000, -59.245196
574500, -59.050535
575000, -58.857456
575500, -58.662094
576000, -58.468095
576500, -58.271611
577000, -58.076334
577500, -57.878461
578000, -57.681602
578500, -57.481825
579000, -57.282730
579500, -57.080447
580000, -56.878624
580500, -56.673301
581000, -56.467948
581500, -56.258590
582000, -56.048766
582500, -55.834560
583000, -55.619335
583500, -55.398954
584000, -55.176795
584500, -54.948802
585000, -54.718326
585500, -54.480995
586000, -54.239949
586500, -53.990906
587000, -53.737044
587500, -53.473649
588000, -53.203503
588500, -52.921970
589000, -52.631697
589500, -52.327454
590000, -52.011456
590500, -51.678469
591000, -51.329892
591500, -50.959638
592000, -50.568856
592500, -50.150255
593000, -49.703801
593500, -49.221017
594000, -48.700063
594500, -48.130431
595000, -47.507733
595500, -46.817997
596000, -46.052673
596500, -45.192778
597000, -44.222580
597500, -43.114195
598000, -41.840914
598500, -40.360484
599000, -38.627903
599500, -36.578803
600000, -34.142483
600500, -31.227592
601000, -27.742370
601500, -23.595354
602000, -18.743117
602500, -13.231630
603000, -7.283201
603500, -1.325983
604000, 4.050490
604500, 8.301240
605000, 11.122642
605500, 12.535279
606000, 12.765563
606500, 12.109987
607000, 10.824208
607500, 9.108437
608000, 7.098889
608500, 4.897317
609000, 2.569484
609500, 0.168826
610000, -2.272096
610500, -4.723425
611000, -7.169804
611500, -9.594019
612000, -11.990446
612500, -14.349012
613000, -16.670079
613500, -18.948286
614000, -21.187204
614500, -23.385284
615000, -25.549608
615500, -27.681424
616000, -29.790917
616500, -31.882760
617000, -33.970660
617500, -36.062732
618000, -38.175901
618500, -40.320706
619000, -42.514912
619500, -44.767691
620000, -47.092047
620500, -49.487135
621000, -51.948125
621500, -54.448058
622000, -56.946381
622500, -59.375805
623000, -61.659676
623500, -63.712403
624000, -65.471072
624500, -66.896676
625000, -67.994511
625500, -68.793084
626000, -69.345368
626500, -69.701321
627000, -69.913260
627500, -70.017451
628000, -70.047950
628500, -70.023424
629000, -69.963284
629500, -69.874973
630000, -69.769701
630500, -69.649115
631000, -69.520401
631500, -69.382444
632000, -69.240541
632500, -69.092298
633000, -68.942132
633500, -68.787055
634000, -68.631068
634500, -68.470907
635000, -68.310381
635500, -68.146093
636000, -67.981759
636500, -67.813922
637000, -67.646244
637500, -67.475238
638000, -67.304543
638500, -67.130664
639000, -66.957230
639500, -66.780740
640000, -66.604808
640500, -66.425929
641000, -66.247720
641500, -66.066682
642000, -65.886430
642500, -65.703462
643000, -65.521381
643500, -65.336689
644000, -65.152993
644500, -64.966806
645000, -64.781731
645500, -64.594267
646000, -64.408007
646500, -64.219462
647000, -64.032232
647500, -63.842836
648000, -63.654851
648500, -63.464780
649000, -63.276204
649500, -63.085641
650000, -62.896678
650500, -62.705820
651000, -62.516620
651500, -62.325582
652000, -62.136274
652500, -61.945215
653000, -61.755963
653500, -61.564995
654000, -61.375846
654500, -61.185019
655000, -60.996062
655500, -60.805494
656000, -60.616798
656500, -60.426447
657000, -60.237950
657500, -60.047811
658000, -59.859555
658500, -59.669632
659000, -59.481495
659500, -59.291611
660000, -59.103463
660500, -58.913546
661000, -58.725312
661500, -58.535163
662000, -58.346522
662500, -58.155841
663000, -57.966578
663500, -57.775191
664000, -57.585009
664500, -57.392414
665000, -57.200794
665500, -57.006581
666000, -56.813198
666500, -56.616927
667000, -56.421047
667500, -56.221910
668000, -56.022850
668500, -55.820272
669000, -55.617327
669500, -55.410237
670000, -55.202208
670500, -54.989530
671000, -54.775447
671500, -54.555983
672000, -54.334151
672500, -54.106069
673000, -53.874814
673500, -53.636343
674000, -53.393386
674500, -53.141792
675000, -52.884355
675500, -52.616745
676000, -52.341275
676500, -52.053379
677000, -51.755398
677500, -51.442229
678000, -51.115544
678500, -50.770090
679000, -50.406910
679500, -50.019794
680000, -49.609310
680500, -49.167986
681000, -48.694982
681500, -48.181487
682000, -47.624688
682500, -47.013383
683000, -46.342016
683500, -45.595469
684000, -44.763217
684500, -43.824673
685000, -42.761905
685500, -41.544807
686000, -40.143616
686500, -38.513969
687000, -36.608895
687500, -34.364608
688000, -31.714918
688500, -28.582077
689000, -24.901979
689500, -20.633006
690000, -15.808579
690500, -10.571092
691000, -5.224081
691500, -0.199722
692000, 4.032262
692500, 7.133615
693000, 8.985106
693500, 9.684825
694000, 9.439177
694500, 8.482870
695000, 7.012959
695500, 5.188086
696000, 3.118996
696500, 0.891879
697000, -1.436772
697500, -3.820155
698000, -6.229969
698500, -8.640034
699000, -11.037451
699500, -13.407274
700000, -15.745605
700500, -18.044303
701000, -20.304421
701500, -22.522823
702000, -24.704626
702500, -26.849913
703000, -28.967337
703500, -31.060635
704000, -33.142278
704500, -35.219604
705000, -37.308074
705500, -39.417460
706000, -41.564674
706500, -43.759197
707000, -46.014886
707500, -48.334078
708000, -50.717012
708500, -53.145142
709000, -55.590081
709500, -57.997321
710000, -60.302924
710500, -62.426265
711000, -64.299800
711500, -65.870854
712000, -67.125302
712500, -68.074215
713000, -68.758539
713500, -69.223238
714000, -69.520308
714500, -69.689036
715000, -69.767063
715500, -69.777100
716000, -69.741555
716500, -69.670716
717000, -69.577517
717500, -69.465322
718000, -69.342132
718500, -69.207860
719000, -69.068103
719500, -68.921119
720000, -68.771358
720500, -68.616289
721000, -68.459814
721500, -68.299027
722000, -68.137567
722500, -67.972349
723000, -67.806877
723500, -67.637976
724000, -67.469081
724500, -67.296978
725000, -67.125070
725500, -66.950126
726000, -66.775528
726500, -66.598030
727000, -66.421002
727500, -66.241200
728000, -66.061993
728500, -65.880138
729000, -65.698993
729500, -65.515310
730000, -65.332443
730500, -65.147154
731000, -64.962802
731500, -64.776147
732000, -64.590531
732500, -64.402711
733000, -64.216032
733500, -64.027264
734000, -63.839757
734500, -63.650261
735000, -63.462103
735500, -63.272046
736000, -63.083426
736500, -62.893016
737000, -62.704133
737500, -62.513523
738000, -62.324499
738500, -62.133823
739000, -61.944818
739500, -61.754245
740000, -61.565377
740500, -61.374959
741000, -61.186284
741500, -60.996115
742000, -60.807756
742500, -60.617911
743000, -60.429834
743500, -60.240261
744000, -60.052466
744500, -59.863210
745000, -59.675713
745500, -59.486666
746000, -59.299299
746500, -59.110340
747000, -58.923040
747500, -58.734106
748000, -58.546693
748500, -58.357480
749000, -58.169666
749500, -57.979969
750000, -57.791600
750500, -57.601157
751000, -57.411757
751500, -57.220062
752000, -57.029236
752500, -56.835980
753000, -56.643328
753500, -56.447846
754000, -56.252605
754500, -56.054234
755000, -55.855849
755500, -55.653951
756000, -55.451470
756500, -55.244918
757000, -55.037296
757500, -54.825174
758000, -54.611342
758500, -54.392138
759000, -54.170382
759500, -53.942484
760000, -53.711221
760500, -53.472667
761000, -53.229378
761500, -52.977510
762000, -52.719622
762500, -52.451410
763000, -52.175028
763500, -51.886229
764000, -51.586941
764500, -51.272277
765000, -50.943758
765500, -50.596332
766000, -50.230612
766500, -49.840748
767000, -49.426779
767500, -48.981560
768000, -48.504089
768500, -47.985460
769000, -47.422751
769500, -46.804645
770000, -46.125026
770500, -45.369214
771000, -44.526056
771500, -43.574887
772000, -42.497274
772500, -41.263177
773000, -39.842542
773500, -38.191186
774000, -36.262231
774500, -33.993041
775000, -31.319170
775500, -28.167097
776000, -24.478806
776500, -20.223171
777000, -15.445144
777500, -10.299403
778000, -5.092719
778500, -0.246126
779000, 3.797310
779500, 6.729496
780000, 8.450897
780500, 9.062143
781000, 8.762248
781500, 7.774941
782000, 6.288976
782500, 4.457087
783000, 2.387045
783500, 0.162845
784000, -2.159913
784500, -4.535412
785000, -6.935830
785500, -9.335424
786000, -11.721551
786500, -14.079867
787000, -16.406049
787500, -18.692841
788000, -20.941314
788500, -23.148288
789000, -25.319225
789500, -27.455017
790000, -29.564483
790500, -31.651961
791000, -33.729836
791500, -35.805891
792000, -37.895572
792500, -40.008996
793000, -42.162708
793500, -44.365905
794000, -46.630924
794500, -48.958199
795000, -51.345396
795500, -53.769732
796000, -56.198165
796500, -58.572637
797000, -60.825939
797500, -62.879750
798000, -64.671334
798500, -66.156018
799000, -67.327989
799500, -68.204889
800000, -68.830512
800500, -69.250175
801000, -69.513866
801500, -69.658702
802000, -69.719721
802500, -69.717896
803000, -69.673881
803500, -69.597099
804000, -69.499474
804500, -69.384079
805000, -69.258316
805500, -69.122095
806000, -68.980616
806500, -68.832267
807000, -68.681186
807500, -68.525033
808000, -68.367444
808500, -68.205729
809000, -68.043275
809500, -67.877227
810000, -67.710843
810500, -67.541182
811000, -67.371441
811500, -67.198641
812000, -67.025950
812500, -66.850372
813000, -66.675050
813500, -66.496974
814000, -66.319282
814500, -66.138965
815000, -65.959159
815500, -65.776853
816000, -65.595169
816500, -65.411093
817000, -65.227752
817500, -65.042139
818000, -64.857381
818500, -64.670465
819000, -64.484499
819500, -64.296478
820000, -64.109518
820500, -63.920620
821000, -63.732893
821500, -63.543318
822000, -63.354994
822500, -63.164920
823000, -62.976200
823500, -62.785838
824000, -62.596903
824500, -62.406378
825000, -62.217348
825500, -62.026813
826000, -61.837865
826500, -61.647467
827000, -61.458670
827500, -61.268456
828000, -61.079892
828500, -60.889975
829000, -60.701742
829500, -60.512139
830000, -60.324194
830500, -60.134884
831000, -59.947255
831500, -59.758278
832000, -59.570923
832500, -59.382126
833000, -59.194891
833500, -59.006188
834000, -58.819041
834500, -58.630328
835000, -58.442988
835500, -58.253944
836000, -58.066175
836500, -57.876638
837000, -57.688240
837500, -57.497827
838000, -57.308305
838500, -57.116578
839000, -56.925589
839500, -56.732209
840000, -56.539230
840500, -56.343468
841000, -56.147782
841500, -55.949044
842000, -55.750092
842500, -55.547608
843000, -55.344319
843500, -55.136986
844000, -54.928395
844500, -54.715259
845000, -54.500112
845500, -54.279545
846000, -54.056171
846500, -53.826646
847000, -53.593340
847500, -53.352587
848000, -53.106742
848500, -52.852205
849000, -52.591087
849500, -52.319341
850000, -52.038919
850500, -51.745813
851000, -51.441424
851500, -51.121118
852000, -50.786198
852500, -50.431467
853000, -50.057319
853500, -49.658111
854000, -49.233158
854500, -48.775506
855000, -48.283321
855500, -47.747832
856000, -47.165114
856500, -46.523884
857000, -45.816763
857500, -45.028476
858000, -44.146792
858500, -43.149666
859000, -42.016608
859500, -40.715705
860000, -39.213778
860500, -37.463759
861000, -35.415308
861500, -33.003115
862000, -30.161081
862500, -26.818329
863000, -22.926757
863500, -18.477545
864000, -13.555080
864500, -8.366881
865000, -3.269711
865500, 1.297377
866000, 4.928378
866500, 7.393404
867000, 8.672800
867500, 8.915714
868000, 8.334284
868500, 7.143020
869000, 5.514535
869500, 3.585560
870000, 1.451717
870500, -0.812358
871000, -3.157412
871500, -5.542604
872000, -7.943403
872500, -10.336885
873000, -12.712177
873500, -15.056670
874000, -17.366979
874500, -19.637083
875000, -21.868696
875500, -24.059640
876000, -26.215667
876500, -28.338756
877000, -30.438284
877500, -32.519540
878000, -34.595367
878500, -36.674353
879000, -38.772136
879500, -40.899188
880000, -43.071513
880500, -45.297525
881000, -47.587298
881500, -49.938086
882000, -52.342322
882500, -54.770771
883000, -57.182554
883500, -59.512997
884000, -61.691109
884500, -63.640958
885000, -65.308340
885500, -66.662022
886000, -67.708888
886500, -68.476336
887000, -69.012265
887500, -69.362362
888000, -69.573882
888500, -69.680746
889000, -69.714388
889500, -69.693129
890000, -69.635169
890500, -69.548493
891000, -69.443616
891500, -69.322992
892000, -69.193223
892500, -69.054035
893000, -68.910130
893500, -68.759923
894000, -68.607202
894500, -68.449756
895000, -68.290937
895500, -68.128232
896000, -67.964778
896500, -67.797916
897000, -67.630669
897500, -67.460305
898000, -67.289797
898500, -67.116379
899000, -66.942998
899500, -66.766868
900000, -66.590916
900500, -66.412348
901000, -66.234084
901500, -66.053334
902000, -65.873015
902500, -65.690329
903000, -65.508182
903500, -65.323780
904000, -65.140032
904500, -64.954150
905000, -64.769041
905500, -64.581904
906000, -64.395635
906500, -64.207445
907000, -64.020236
907500, -63.831229
908000, -63.643300
908500, -63.453652
909000, -63.265171
909500, -63.075072
910000, -62.886248
910500, -62.695900
911000, -62.506885
911500, -62.316407
912000, -62.127338
912500, -61.936895
913000, -61.747939
913500, -61.557646
914000, -61.368857
914500, -61.178772
915000, -60.990247
915500, -60.800494
916000, -60.612305
916500, -60.422850
917000, -60.234948
917500, -60.045796
918000, -59.858230
918500, -59.669394
919000, -59.482054
919500, -59.293369
920000, -59.106136
920500, -58.917544
921000, -58.730357
921500, -58.541675
922000, -58.354233
922500, -58.165178
923000, -57.977281
923500, -57.787702
924000, -57.599087
924500, -57.408513
925000, -57.218682
925500, -57.026722
926000, -56.835373
926500, -56.641634
927000, -56.448105
927500, -56.251831
928000, -56.055468
928500, -55.856113
929000, -55.656290
929500, -55.452914
930000, -55.248517
930500, -55.040089
931000, -54.830214
931500, -54.615685
932000, -54.398849
932500, -54.176528
933000, -53.951139
933500, -53.719479
934000, -53.483624
934500, -53.240146
935000, -52.991198
935500, -52.733389
936000, -52.468409
936500, -52.192444
937000, -51.907245
937500, -51.608822
938000, -51.298285
938500, -50.971209
939000, -50.628608
939500, -50.265166
940000, -49.881043
940500, -49.470469
941000, -49.032329
941500, -48.559790
942000, -48.050105
942500, -47.494562
943000, -46.888110
943500, -46.219111
944000, -45.479087
944500, -44.651570
945000, -43.722584
945500, -42.668659
946000, -41.466788
946500, -40.082307
947000, -38.478762
947500, -36.605288
948000, -34.407366
948500, -31.816588
949000, -28.765928
949500, -25.189599
950000, -21.054861
950500, -16.385341
951000, -11.317224
951500, -6.121911
952000, -1.205284
952500, 2.992751
953000, 6.128565
953500, 8.067008
954000, 8.870185
954500, 8.727653
955000, 7.856375
955500, 6.456888
956000, 4.683354
956500, 2.655951
957000, 0.457784
957500, -1.846017
958000, -4.212702
958500, -6.606587
959000, -9.006522
959500, -11.392490
960000, -13.755564
960500, -16.084878
961000, -18.378159
961500, -20.630599
962000, -22.844620
962500, -25.019109
963000, -27.160330
963500, -29.271324
964000, -31.362083
964500, -33.438886
965000, -35.515084
965500, -37.600053
966000, -39.709589
966500, -41.854363
967000, -44.049593
967500, -46.302454
968000, -48.620050
968500, -50.995527
969000, -53.415045
969500, -55.841606
970000, -58.226127
970500, -60.497613
971000, -62.583400
971500, -64.412963
972000, -65.943550
972500, -67.158733
973000, -68.077839
973500, -68.736480
974000, -69.185061
974500, -69.468309
975000, -69.630176
975500, -69.701088
976000, -69.708863
976500, -69.669236
977000, -69.598070
977500, -69.501992
978000, -69.390200
978500, -69.264568
979000, -69.130950
979500, -68.988897
980000, -68.842649
980500, -68.690640
981000, -68.536333
981500, -68.377632
982000, -68.217627
982500, -68.053964
983000, -67.889549
983500, -67.721902
984000, -67.553830
984500, -67.382794
985000, -67.211556
985500, -67.037548
986000, -66.863512
986500, -66.686859
987000, -66.510311
987500, -66.331277
988000, -66.152475
988500, -65.971317
989000, -65.790517
989500, -65.607474
990000, -65.424894
990500, -65.240186
991000, -65.056059
991500, -64.869928
992000, -64.684488
992500, -64.497144
993000, -64.310592
993500, -64.122247
994000, -63.934809
994500, -63.745693
995000, -63.557572
995500, -63.367855
996000, -63.179228
996500, -62.989110
997000, -62.800190
997500, -62.609856
998000, -62.420769
998500, -62.230337
999000, -62.041233
999500, -61.850878
1000000, -61.661909
1000500, -61.471709
1001000, -61.282923
1001500, -61.092954
1002000, -60.904462
1002500, -60.714829
1003000, -60.526655
1003500, -60.337316
1004000, -60.149436
1004500, -59.960415
1005000, -59.772875
1005500, -59.584140
1006000, -59.396787
1006500, -59.208182
1007000, -59.020927
1007500, -58.832414
1008000, -58.645160
1008500, -58.456474
1009000, -58.268905
1009500, -58.079805
1010000, -57.891752
1010500, -57.702044
1011000, -57.513144
1011500, -57.322340
1012000, -57.132145
1012500, -56.939894
1013000, -56.748078
1013500, -56.553881
1014000, -56.359720
1014500, -56.162851
1015000, -55.965743
1015500, -55.765658
1016000, -55.564866
1016500, -55.360501
1017000, -55.154913
1017500, -54.945298
1018000, -54.733980
1018500, -54.517904
1019000, -54.299242
1019500, -54.075028
1020000, -53.847492
1020500, -53.613464
1021000, -53.374848
1021500, -53.128428
1022000, -52.876172
1022500, -52.614671
1023000, -52.345441
1023500, -52.064874
1024000, -51.774523
1024500, -51.470302
1025000, -51.153131
1025500, -50.818771
1026000, -50.467662
1026500, -50.094665
1027000, -49.699698
1027500, -49.276663
1028000, -48.824172
1028500, -48.335022
1029000, -47.806023
1029500, -47.227941
1030000, -46.595105
1030500, -45.894920
1031000, -45.117982
1031500, -44.246729
1032000, -43.265146
1032500, -42.147818
1033000, -40.869042
1033500, -39.391212
1034000, -37.673686
1034500, -35.661815
1035000, -33.296863
1035500, -30.507978
1036000, -27.229222
1036500, -23.403948
1037000, -19.022231
1037500, -14.149666
1038000, -8.982985
1038500, -3.857436
1039000, 0.787564
1039500, 4.540298
1040000, 7.141484
1040500, 8.553409
1041000, 8.904903
1041500, 8.409554
1042000, 7.278808
1042500, 5.695392
1043000, 3.795172
1043500, 1.682863
1044000, -0.569688
1044500, -2.905836
1045000, -5.288637
1045500, -7.687091
1046000, -10.083078
1046500, -12.459338
1047000, -14.808566
1047500, -17.121547
1048000, -19.397104
1048500, -21.631576
1049000, -23.828088
1049500, -25.986577
1050000, -28.113903
1050500, -30.214095
1051000, -32.297794
1051500, -34.372255
1052000, -36.451322
1052500, -38.545079
1053000, -40.669356
1053500, -42.834787
1054000, -45.055459
1054500, -47.336751
1055000, -49.682075
1055500, -52.079592
1056000, -54.508026
1056500, -56.922448
1057000, -59.265850
1057500, -61.462497
1058000, -63.440945
1058500, -65.139291
1059000, -66.528353
1059500, -67.606094
1060000, -68.402978
1060500, -68.960500
1061000, -69.329753
1061500, -69.553273
1062000, -69.671237
1062500, -69.710562
1063000, -69.695671
1063500, -69.639956
1064000, -69.557193
1064500, -69.452832
1065000, -69.334907
1065500, -69.204806
1066000, -69.067720
1066500, -68.923066
1067000, -68.774665
1067500, -68.620985
1068000, -68.465192
1068500, -68.305305
1069000, -68.144171
1069500, -67.979590
1070000, -67.814251
1070500, -67.645843
1071000, -67.476972
1071500, -67.305280
1072000, -67.133334
1072500, -66.958750
1073000, -66.784077
1073500, -66.606911
1074000, -66.429784
1074500, -66.250295
1075000, -66.070973
1075500, -65.889417
1076000, -65.708148
1076500, -65.524755
1077000, -65.341757
1077500, -65.156753
1078000, -64.972263
1078500, -64.785890
1079000, -64.600135
1079500, -64.412592
1080000, -64.225773
1080500, -64.037281
1081000, -63.849631
1081500, -63.660411
1082000, -63.472113
1082500, -63.282334
1083000, -63.093575
1083500, -62.903444
1084000, -62.714427
1084500, -62.524101
1085000, -62.334948
1085500, -62.144562
1086000, -61.955434
1086500, -61.765159
1087000, -61.576179
1087500, -61.386069
1088000, -61.197292
1088500, -61.007441
1089000, -60.818992
1089500, -60.629480
1090000, -60.441330
1090500, -60.252108
1091000, -60.064258
1091500, -59.875369
1092000, -59.687838
1092500, -59.499187
1093000, -59.311813
1093500, -59.123275
1094000, -58.935994
1094500, -58.747514
1095000, -58.560161
1095500, -58.371441
1096000, -58.183725
1096500, -57.994558
1097000, -57.806336
1097500, -57.616480
1098000, -57.427284
1098500, -57.236232
1099000, -57.045665
1099500, -56.853107
1100000, -56.660786
1100500, -56.466091
1101000, -56.271269
1101500, -56.073771
1102000, -55.875892
1102500, -55.674978
1103000, -55.473139
1103500, -55.267708
1104000, -55.060863
1104500, -54.849997
1105000, -54.637120
1105500, -54.419386
1106000, -54.198800
1106500, -53.972592
1107000, -53.742774
1107500, -53.506240
1108000, -53.264733
1108500, -53.015233
1109000, -52.759534
1109500, -52.494187
1110000, -52.220545
1110500, -51.935193
1111000, -51.639364
1111500, -51.329008
1112000, -51.004861
1112500, -50.662850
1113000, -50.302833
1113500, -49.919828
1114000, -49.513328
1114500, -49.077090
1115000, -48.609452
1115500, -48.102693
1116000, -47.553283
1116500, -46.951253
1117000, -46.290341
1117500, -45.557037
1118000, -44.740351
1118500, -43.821574
1119000, -42.782832
1119500, -41.596548
1120000, -40.233834
1120500, -38.653867
1121000, -36.811964
1121500, -34.649452
1122000, -32.103803
1122500, -29.102915
1123000, -25.584651
1123500, -21.507337
1124000, -16.891574
1124500, -11.854469
1125000, -6.657566
1125500, -1.691466
1126000, 2.597180
1126500, 5.853190
1127000, 7.913907
1127500, 8.828291
1128000, 8.772472
1128500, 7.968236
1129000, 6.614606
1129500, 4.875109
1130000, 2.868651
1130500, 0.686265
1131000, -1.609930
1131500, -3.970624
1132000, -6.363896
1132500, -8.762867
1133000, -11.152059
1133500, -13.516672
1134000, -15.850831
1134500, -18.146820
1135000, -20.404462
1135500, -22.621180
1136000, -24.800787
1136500, -26.944247
1137000, -29.059074
1137500, -31.150142
1138000, -33.228784
1138500, -35.303199
1139000, -37.387682
1139500, -39.492902
1140000, -41.634559
1140500, -43.822948
1141000, -46.070626
1141500, -48.380558
1142000, -50.751728
1142500, -53.166493
1143000, -55.595451
1143500, -57.985727
1144000, -60.273392
1144500, -62.380420
1145000, -64.239772
1145500, -65.800934
1146000, -67.048997
1146500, -67.995678
1147000, -68.679886
1147500, -69.146527
1148000, -69.445728
1148500, -69.617203
1149000, -69.697227
1149500, -69.709387
1150000, -69.675027
1150500, -69.605485
1151000, -69.512721
1151500, -69.401184
1152000, -69.277907
1152500, -69.143877
1153000, -69.003710
1153500, -68.856721
1154000, -68.706363
1154500, -68.551150
1155000, -68.393979
1155500, -68.232980
1156000, -68.070780
1156500, -67.905324
1157000, -67.739100
1157500, -67.569957
1158000, -67.400317
1158500, -67.227988
1159000, -67.055359
1159500, -66.880216
1160000, -66.704925
1160500, -66.527258
1161000, -66.349573
1161500, -66.169641
1162000, -65.989818
1162500, -65.807876
1163000, -65.626157
1163500, -65.442426
1164000, -65.259029
1164500, -65.073740
1165000, -64.888906
1165500, -64.702295
1166000, -64.516238
1166500, -64.328505
1167000, -64.141434
1167500, -63.952805
1168000, -63.764953
1168500, -63.575635
1169000, -63.387172
1169500, -63.197338
1170000, -63.008462
1170500, -62.818327
1171000, -62.629228
1171500, -62.438921
1172000, -62.249716
1172500, -62.059385
1173000, -61.870246
1173500, -61.680046
1174000, -61.491060
1174500, -61.301040
1175000, -61.112280
1175500, -60.922550
1176000, -60.734123
1176500, -60.544716
1177000, -60.356584
1177500, -60.167470
1178000, -59.979653
1178500, -59.790884
1179000, -59.603362
1179500, -59.414789
1180000, -59.227398
1180500, -59.038925
1181000, -58.851626
1181500, -58.663165
1182000, -58.475709
1182500, -58.286947
1183000, -58.099086
1183500, -57.909847
1184000, -57.721396
1184500, -57.531341
1185000, -57.341814
1185500, -57.150483
1186000, -56.959524
1186500, -56.766601
1187000, -56.573737
1187500, -56.378506
1188000, -56.182997
1188500, -55.984845
1189000, -55.786163
1189500, -55.584389
1190000, -55.381479
1190500, -55.174954
1191000, -54.966835
1191500, -54.754648
1192000, -54.540157
1192500, -54.320708
1193000, -54.098151
1193500, -53.869899
1194000, -53.637632
1194500, -53.398438
1195000, -53.153907
1195500, -52.901198
1196000, -52.641756
1196500, -52.372288
1197000, -52.093986
1197500, -51.803604
1198000, -51.501920
1198500, -51.185058
1199000, -50.853574
1199500, -50.503203
1200000, -50.133601
1200500, -49.739908
1201000, -49.320933
1201500, -48.870521
1202000, -48.386400
1202500, -47.860636
1203000, -47.288967
1203500, -46.661013
1204000, -45.969217
1204500, -45.199707
1205000, -44.339838
1205500, -43.369263
1206000, -42.267833
1206500, -41.005664
1207000, -39.550810
1207500, -37.858635
1208000, -35.880224
1208500, -33.552932
1209000, -30.811212
1209500, -27.583772
1210000, -23.816508
1210500, -19.488624
1211000, -14.660973
1211500, -9.510735
1212000, -4.364210
1212500, 0.350014
1213000, 4.206706
1213500, 6.930952
1214000, 8.458663
1214500, 8.909832
1215000, 8.489318
1215500, 7.415268
1216000, 5.869819
1216500, 3.997710
1217000, 1.902208
1217500, -0.337719
1218000, -2.668403
1218500, -5.046927
1219000, -7.445810
1219500, -9.841747
1220000, -12.221603
1220500, -14.572816
1221000, -16.890785
1221500, -19.169166
1222000, -21.408723
1222500, -23.607913
1223000, -25.771233
1223500, -27.900653
1224000, -30.004357
1224500, -32.088047
1225000, -34.163747
1225500, -36.240551
1226000, -38.333137
1226500, -40.452612
1227000, -42.614331
1227500, -44.827895
1228000, -47.103839
1228500, -49.441970
1229000, -51.836044
1229500, -54.261790
1230000, -56.681120
1230500, -59.033552
1231000, -61.249675
1231500, -63.252337
1232000, -64.982108
1232500, -66.401998
1233000, -67.511335
1233500, -68.333682
1234000, -68.914168
1234500, -69.299209
1235000, -69.536599
1235500, -69.662692
1236000, -69.709866
1236500, -69.698593
1237000, -69.647447
1237500, -69.565968
1238000, -69.464531
1238500, -69.346740
1239000, -69.218759
1239500, -69.081247
1240000, -68.938318
1240500, -68.789214
1241000, -68.637061
1241500, -68.480425
1242000, -68.321962
1242500, -68.159909
1243000, -67.996693
1243500, -67.830394
1244000, -67.663315
1244500, -67.493458
1245000, -67.323071
1245500, -67.150120
1246000, -66.976824
1246500, -66.801131
1247000, -66.625237
1247500, -66.447078
1248000, -66.268848
1248500, -66.088482
1249000, -65.908172
1249500, -65.725847
1250000, -65.543688
1250500, -65.359625
1251000, -65.175842
1251500, -64.990276
1252000, -64.805112
1252500, -64.618272
1253000, -64.431927
1253500, -64.244012
1254000, -64.056706
1254500, -63.867949
1255000, -63.679904
1255500, -63.490492
1256000, -63.301877
1256500, -63.111995
1257000, -62.923017
1257500, -62.732870
1258000, -62.543692
1258500, -62.353403
1259000, -62.164155
1259500, -61.973883
1260000, -61.784740
1260500, -61.594617
1261000, -61.405635
1261500, -61.215710
1262000, -61.026979
1262500, -60.837375
1263000, -60.648981
1263500, -60.459681
1264000, -60.271577
1264500, -60.082577
1265000, -59.894801
1265500, -59.706126
1266000, -59.518599
1266500, -59.330088
1267000, -59.142676
1267500, -58.954262
1268000, -58.766918
1268500, -58.578450
1269000, -58.390879
1269500, -58.202060
1270000, -58.014048
1270500, -57.824730
1271000, -57.636048
1271500, -57.445785
1272000, -57.255927
1272500, -57.064310
1273000, -56.872958
1273500, -56.679618
1274000, -56.486170
1274500, -56.290364
1275000, -56.094142
1275500, -55.895304
1276000, -55.695711
1276500, -55.492976
1277000, -55.288917
1277500, -55.081225
1278000, -54.871773
1278500, -54.658117
1279000, -54.441887
1279500, -54.220606
1280000, -53.995977
1280500, -53.765573
1281000, -53.530754
1281500, -53.288790
1282000, -53.041127
1282500, -52.785090
1283000, -52.521748
1283500, -52.247987
1284000, -51.964849
1284500, -51.669171
1285000, -51.361358
1285500, -51.037694
1286000, -50.698562
1286500, -50.339462
1287000, -49.959867
1287500, -49.554933
1288000, -49.122875
1288500, -48.657613
1289000, -48.156029
1289500, -47.610193
1290000, -47.014784
1290500, -46.359299
1291000, -45.634800
1291500, -44.826197
1292000, -43.919593
1292500, -42.893131
1293000, -41.724194
1293500, -40.380094
1294000, -38.825157
1294500, -37.011290
1295000, -34.885160
1295500, -32.380558
1296000, -29.430131
1296500, -25.966175
1297000, -21.946999
1297500, -17.381158
1298000, -12.378742
1298500, -7.181657
1299000, -2.173124
1299500, 2.203839
1300000, 5.574522
1300500, 7.758134
1301000, 8.780918
1301500, 8.814506
1302000, 8.075486
1302500, 6.770545
1303000, 5.063142
1303500, 3.080305
1304000, 0.911568
1304500, -1.374409
1305000, -3.731247
1305500, -6.121564
1306000, -8.521772
1306500, -10.911637
1307000, -13.280092
1307500, -15.616582
1308000, -17.917644
1308500, -20.178196
1309000, -22.399859
1309500, -24.582089
1310000, -26.730067
1310500, -28.846749
1311000, -30.940986
1311500, -33.019419
1312000, -35.094499
1312500, -37.176209
1313000, -39.279548
1313500, -41.415877
1314000, -43.599951
1314500, -45.840258
1315000, -48.144758
1315500, -50.509325
1316000, -52.921713
1316500, -55.350344
1317000, -57.748324
1317500, -60.048456
1318000, -62.178165
1318500, -64.064374
1319000, -65.658133
1319500, -66.936678
1320000, -67.913343
1320500, -68.620966
1321000, -69.108266
1321500, -69.421359
1322000, -69.604997
1322500, -69.691982
1323000, -69.710984
1323500, -69.679659
1324000, -69.614134
1324500, -69.522405
1325000, -69.413480
1325500, -69.290258
1326000, -69.158153
1326500, -69.017563
1327000, -68.872162
1327500, -68.721144
1328000, -68.567347
1328500, -68.409394
1329000, -68.249721
1329500, -68.086673
1330000, -67.922491
1330500, -67.755381
1331000, -67.587481
1331500, -67.416932
1332000, -67.245823
1332500, -67.072266
1333000, -66.898326
1333500, -66.722093
1334000, -66.545615
1334500, -66.366976
1335000, -66.188219
1335500, -66.007430
1336000, -65.826651
1336500, -65.643956
1337000, -65.461375
1337500, -65.276991
1338000, -65.092839
1338500, -64.907007
1339000, -64.721522
1339500, -64.534458
1340000, -64.347839
1340500, -64.159752
1341000, -63.972224
1341500, -63.783346
1342000, -63.595121
1342500, -63.405624
1343000, -63.216872
1343500, -63.026952
1344000, -62.837886
1344500, -62.647735
1345000, -62.458492
1345500, -62.268230
1346000, -62.078953
1346500, -61.888749
1347000, -61.699598
1347500, -61.509547
1348000, -61.320572
1348500, -61.130742
1349000, -60.942049
1349500, -60.752553
1350000, -60.564187
1350500, -60.374987
1351000, -60.186913
1351500, -59.998026
1352000, -59.810299
1352500, -59.621719
1353000, -59.434193
1353500, -59.245749
1354000, -59.058324
1354500, -58.869971
1355000, -58.682566
1355500, -58.494076
1356000, -58.306382
1356500, -58.117496
1357000, -57.929332
1357500, -57.739875
1358000, -57.550922
1358500, -57.360414
1359000, -57.170202
1359500, -56.978276
1360000, -56.786501
1360500, -56.592713
1361000, -56.398663
1361500, -56.202261
1362000, -56.005314
1362500, -55.805777
1363000, -55.605262
1363500, -55.401553
1364000, -55.196335
1364500, -54.987460
1365000, -54.776647
1365500, -54.561490
1366000, -54.343495
1366500, -54.120348
1367000, -53.893618
1367500, -53.660867
1368000, -53.423333
1368500, -53.178448
1369000, -52.927521
1369500, -52.667895
1370000, -52.400421
1370500, -52.122143
1371000, -51.833959
1371500, -51.532571
1372000, -51.218243
1372500, -50.887394
1373000, -50.539984
1373500, -50.171535
1374000, -49.781333
1374500, -49.364174
1375000, -48.918052
1375500, -48.436712
1376000, -47.916383
1376500, -47.348872
1377000, -46.727987
1377500, -46.042315
1378000, -45.282288
1378500, -44.431422
1379000, -43.473909
1379500, -42.385976
1380000, -41.142426
1380500, -39.707865
1381000, -38.042768
1381500, -36.095028
1382000, -33.806971
1382500, -31.109481
1383000, -27.935010
1383500, -24.222943
1384000, -19.951586
1384500, -15.167297
1385000, -10.037841
1385500, -4.870971
1386000, -0.093098
1386500, 3.867210
1387000, 6.711210
1387500, 8.357228
1388000, 8.907182
1388500, 8.565214
1389000, 7.546982
1389500, 6.042730
1390000, 4.197275
1390500, 2.121212
1391000, -0.107945
1391500, -2.430606
1392000, -4.806734
1392500, -7.203810
1393000, -9.601700
1393500, -11.982880
1394000, -14.338125
1394500, -16.658718
1395000, -18.942223
1395500, -21.184733
1396000, -23.388694
1396500, -25.554535
1397000, -27.688126
1397500, -29.793398
1398000, -31.879879
1398500, -33.955134
1399000, -36.032122
1399500, -38.121467
1400000, -40.238402
1400500, -42.394331
1401000, -44.603089
1401500, -46.871551
1402000, -49.204454
1402500, -51.592831
1403000, -54.017640
1403500, -56.439351
1404000, -58.802550
1404500, -61.034737
1405000, -63.063021
1405500, -64.821638
1406000, -66.274178
1406500, -67.413035
1407000, -68.263341
1407500, -68.865038
1408000, -69.268434
1408500, -69.517871
1409000, -69.654528
1409500, -69.707589
1410000, -69.702243
1410500, -69.653609
1411000, -69.575648
1411500, -69.475026
1412000, -69.359564
1412500, -69.231570
1413000, -69.095805
1413500, -68.952458
1414000, -68.804814
1414500, -68.652041
1415000, -68.496719
1415500, -68.337530
1416000, -68.176713
1416500, -68.012714
1417000, -67.847604
1417500, -67.679709
1418000, -67.511013
1418500, -67.339787
1419000, -67.167975
1419500, -66.993824
1420000, -66.819255
1420500, -66.642493
1421000, -66.465444
1421500, -66.286333
1422000, -66.107063
1422500, -65.925859
1423000, -65.744619
1423500, -65.561557
1424000, -65.378566
1424500, -65.193869
1425000, -65.009362
1425500, -64.823273
1426000, -64.637480
1426500, -64.450202
1427000, -64.263323
1427500, -64.075072
1428000, -63.887339
1428500, -63.698340
1429000, -63.509943
1429500, -63.320366
1430000, -63.131488
1430500, -62.941538
1431000, -62.752386
1431500, -62.562232
1432000, -62.372931
1432500, -62.182700
1433000, -61.993406
1433500, -61.803275
1434000, -61.614128
1434500, -61.424155
1435000, -61.235200
1435500, -61.045473
1436000, -60.856830
1436500, -60.667440
1437000, -60.479104
1437500, -60.290005
1438000, -60.101966
1438500, -59.913194
1439000, -59.725484
1439500, -59.536971
1440000, -59.349432
1440500, -59.161039
1441000, -58.973596
1441500, -58.785282
1442000, -58.597805
1442500, -58.409279
1443000, -58.221458
1443500, -58.032498
1444000, -57.844182
1444500, -57.654571
1445000, -57.465336
1445500, -57.274572
1446000, -57.084000
1446500, -56.891756
1447000, -56.699489
1447500, -56.505193
1448000, -56.310495
1448500, -56.113454
1449000, -55.915749
1449500, -55.715382
1450000, -55.513841
1450500, -55.309063
1451000, -55.102610
1451500, -54.892480
1452000, -54.680131
1452500, -54.463316
1453000, -54.243422
1453500, -54.018283
1454000, -53.789342
1454500, -53.554127
1455000, -53.313762
1455500, -53.065832
1456000, -52.811519
1456500, -52.548084
1457000, -52.276261
1457500, -51.993241
1458000, -51.699771
1458500, -51.392404
1459000, -51.071272
1459500, -50.732920
1460000, -50.376780
1460500, -49.998491
1461000, -49.597155
1461500, -49.167162
1462000, -48.706294
1462500, -48.207759
1463000, -47.667494
1463500, -47.076559
1464000, -46.428343
1464500, -45.710363
1465000, -44.911671
1465500, -44.014911
1466000, -43.002449
1466500, -41.848395
1467000, -40.524503
1467500, -38.991988
1468000, -37.207563
1468500, -35.114925
1469000, -32.652507
1469500, -29.749415
1470000, -26.340666
1470500, -22.377756
1471000, -17.865736
1471500, -12.898207
1472000, -7.706196
1472500, -2.657805
1473000, 1.801111
1473500, 5.286138
1474000, 7.590674
1474500, 8.725424
1475000, 8.848361
1475500, 8.178462
1476000, 6.921649
1476500, 5.249525
1477000, 3.289038
1477500, 1.136538
1478000, -1.140867
1478500, -3.491396
1479000, -5.880445
1479500, -8.279703
1480000, -10.672061
1480500, -13.042360
1481000, -15.383073
1481500, -17.686993
1482000, -19.952661
1482500, -22.177282
1483000, -24.364065
1483500, -26.514401
1484000, -28.634855
1484500, -30.730313
1485000, -32.810970
1485500, -34.885271
1486000, -36.966681
1486500, -39.066347
1487000, -41.199508
1487500, -43.377360
1488000, -45.612441
1488500, -47.909458
1489000, -50.269232
1489500, -52.677098
1490000, -55.106568
1490500, -57.509641
1491000, -59.823708
1491500, -61.972959
1492000, -63.887358
1492500, -65.511219
1493000, -66.822294
1493500, -67.827215
1494000, -68.560731
1494500, -69.067173
1495000, -69.396614
1495500, -69.590769
1496000, -69.687004
1496500, -69.711044
1497000, -69.684912
1497500, -69.621499
1498000, -69.532887
1498500, -69.424618
1499000, -69.303493
1499500, -69.171335
1500000, -69.032343
1500500, -68.886539
1501000, -68.736871
1501500, -68.582497
1502000, -68.425766
1502500, -68.265423
1503000, -68.103529
1503500, -67.938625
1504000, -67.772628
1504500, -67.603976
1505000, -67.434512
1505500, -67.262631
1506000, -67.090140
1506500, -66.915411
1507000, -66.740229
1507500, -66.562949
1508000, -66.385347
1508500, -66.205777
1509000, -66.026011
1509500, -65.844406
1510000, -65.662721
1510500, -65.479305
1511000, -65.295920
1511500, -65.110922
1512000, -64.926076
1512500, -64.739734
1513000, -64.553646
1513500, -64.366161
1514000, -64.179037
1514500, -63.990632
1515000, -63.802707
1515500, -63.613597
1516000, -63.425044
1516500, -63.235398
1517000, -63.046410
1517500, -62.856439
1518000, -62.667212
1518500, -62.477059
1519000, -62.287712
1519500, -62.097519
1520000, -61.908221
1520500, -61.718149
1521000, -61.529002
1521500, -61.339104
1522000, -61.150173
1522500, -60.960551
1523000, -60.771951
1523500, -60.582661
1524000, -60.394358
1524500, -60.205360
1525000, -60.017365
1525500, -59.828711
1526000, -59.641026
1526500, -59.452584
1527000, -59.265041
1527500, -59.076703
1528000, -58.889251
1528500, -58.700945
1529000, -58.513375
1529500, -58.324794
1530000, -58.136837
1530500, -57.947794
1531000, -57.759284
1531500, -57.569481
1532000, -57.379942
1532500, -57.188900
1533000, -56.997956
1533500, -56.805379
1534000, -56.612614
1534500, -56.417798
1535000, -56.222448
1535500, -56.024759
1536000, -55.826293
1536500, -55.625080
1537000, -55.422502
1537500, -55.216639
1538000, -55.008939
1538500, -54.797539
1539000, -54.583639
1539500, -54.365144
1540000, -54.143331
1540500, -53.916175
1541000, -53.684864
1541500, -53.447042
1542000, -53.203725
1542500, -52.952634
1543000, -52.694743
1543500, -52.427316
1544000, -52.150977
1544500, -51.863043
1545000, -51.563861
1545500, -51.250116
1546000, -50.921806
1546500, -50.575399
1547000, -50.209996
1547500, -49.821323
1548000, -49.407860
1548500, -48.964052
1549000, -48.487355
1549500, -47.970470
1550000, -47.408955
1550500, -46.793120
1551000, -46.115373
1551500, -45.362695
1552000, -44.522516
1552500, -43.575886
1553000, -42.503065
1553500, -41.275864
1554000, -39.863094
1554500, -38.222660
1555000, -36.306813
1555500, -34.055296
1556000, -31.403088
1556500, -28.279095
1557000, -24.624296
1557500, -20.408301
1558000, -15.671965
1558500, -10.565421
1559000, -5.385669
1559500, -0.547308
1560000, 3.511647
1560500, 6.477186
1561000, 8.241979
1561500, 8.895958
1562000, 8.633878
1562500, 7.676051
1563000, 6.213152
1563500, 4.397682
1564000, 2.340264
1564500, 0.124527
1565000, -2.191501
1565500, -4.562877
1566000, -6.959729
1566500, -9.357456
1567000, -11.741647
1567500, -14.099249
1568000, -16.424295
1568500, -18.710902
1569000, -20.958536
1569500, -23.165469
1570000, -25.335648
1570500, -27.471419
1571000, -29.580054
1571500, -31.667383
1572000, -33.744263
1572500, -35.819972
1573000, -37.908423
1573500, -40.021216
1574000, -42.173355
1574500, -44.375489
1575000, -46.638391
1575500, -48.963952
1576000, -51.348292
1576500, -53.770122
1577000, -56.194965
1577500, -58.566432
1578000, -60.816056
1578500, -62.867327
1579000, -64.656284
1579500, -66.139920
1580000, -67.310903
1580500, -68.188201
1581000, -68.813880
1581500, -69.234547
1582000, -69.498540
1582500, -69.644380
1583000, -69.705559
1583500, -69.704534
1584000, -69.660465
1584500, -69.584287
1585000, -69.486439
1585500, -69.371507
1586000, -69.245410
1586500, -69.109565
1587000, -68.967685
1587500, -68.819660
1588000, -68.668140
1588500, -68.512284
1589000, -68.354236
1589500, -68.192804
1590000, -68.029884
1590500, -67.864112
1591000, -67.697260
1591500, -67.527874
1592000, -67.357666
1592500, -67.185145
1593000, -67.011993
1593500, -66.836699
1594000, -66.660921
1594500, -66.483135
1595000, -66.304994
1595500, -66.124974
1596000, -65.944727
1596500, -65.762726
1597000, -65.580609
1597500, -65.396847
1598000, -65.213082
1598500, -65.027791
1599000, -64.842621
1599500, -64.656036
1600000, -64.469666
1600500, -64.281984
1601000, -64.094629
1601500, -63.906081
1602000, -63.717968
1602500, -63.528749
1603000, -63.340048
1603500, -63.150339
1604000, -62.961252
1604500, -62.771263
1605000, -62.581967
1605500, -62.391821
1606000, -62.202439
1606500, -62.012292
1607000, -61.823001
1607500, -61.632997
1608000, -61.443863
1608500, -61.254047
1609000, -61.065151
1609500, -60.875641
1610000, -60.687081
1610500, -60.497883
1611000, -60.309614
1611500, -60.120714
1612000, -59.932767
1612500, -59.744200
1613000, -59.556523
1613500, -59.368135
1614000, -59.180581
1614500, -58.992290
1615000, -58.804826
1615500, -58.616520
1616000, -58.428856
1616500, -58.240217
1617000, -58.052125
1617500, -57.862996
1618000, -57.674269
1618500, -57.484251
1619000, -57.294392
1619500, -57.103054
1620000, -56.911728
1620500, -56.718726
1621000, -56.525391
1621500, -56.329993
1622000, -56.133942
1622500, -55.935563
1623000, -55.736229
1623500, -55.534077
1624000, -55.330385
1624500, -55.123369
1625000, -54.914367
1625500, -54.701522
1626000, -54.485926
1626500, -54.265620
1627000, -54.041775
1627500, -53.812493
1628000, -53.578677
1628500, -53.338114
1629000, -53.091715
1629500, -52.837329
1630000, -52.575598
1630500, -52.303923
1631000, -52.022818
1631500, -51.729718
1632000, -51.424555
1632500, -51.104137
1633000, -50.768332
1633500, -50.413343
1634000, -50.038132
1634500, -49.638496
1635000, -49.212263
1635500, -48.753918
1636000, -48.260136
1636500, -47.723578
1637000, -47.138816
1637500, -46.495994
1638000, -45.786211
1638500, -44.995525
1639000, -44.110246
1639500, -43.109637
1640000, -41.971635
1640500, -40.665546
1641000, -39.156561
1641500, -37.398868
1642000, -35.340469
1642500, -32.917342
1643000, -30.062066
1643500, -26.705479
1644000, -22.799417
1644500, -18.338738
1645000, -13.409499
1645500, -8.224847
1646000, -3.143161
1646500, 1.395164
1647000, 4.989707
1647500, 7.416050
1648000, 8.661581
1648500, 8.876846
1649000, 8.275565
1649500, 7.069712
1650000, 5.431878
1650500, 3.496122
1651000, 1.358567
1651500, -0.908206
1652000, -3.253984
1652500, -5.639762
1653000, -8.039756
1653500, -10.432667
1654000, -12.806382
1654500, -15.149735
1655000, -17.458181
1655500, -19.727045
1656000, -21.956658
1656500, -24.146314
1657000, -26.300664
1657500, -28.423006
1658000, -30.521327
1658500, -32.602380
1659000, -34.677669
1659500, -36.757245
1660000, -38.855382
1660500, -40.983971
1661000, -43.157580
1661500, -45.385880
1662000, -47.677334
1662500, -50.030298
1663000, -52.435270
1663500, -54.863674
1664000, -57.272734
1664500, -59.598311
1665000, -61.768039
1665500, -63.707781
1666000, -65.362828
1666500, -66.704559
1667000, -67.739668
1667500, -68.497695
1668000, -69.025420
1668500, -69.369845
1669000, -69.576561
1669500, -69.680549
1670000, -69.711538
1670500, -69.688989
1671000, -69.629512
1671500, -69.542345
1672000, -69.436509
1672500, -69.315779
1673000, -69.185319
1673500, -69.046210
1674000, -68.901743
1674500, -68.751704
1675000, -68.598485
1675500, -68.441254
1676000, -68.281971
1676500, -68.119505
1677000, -67.955607
1677500, -67.788999
1678000, -67.621320
1678500, -67.451221
1679000, -67.280290
1679500, -67.107144
1680000, -66.933347
1680500, -66.757496
1681000, -66.581135
1681500, -66.402852
1682000, -66.224186
1682500, -66.043727
1683000, -65.863013
1683500, -65.680624
1684000, -65.498088
1684500, -65.313989
1685000, -65.129858
1685500, -64.944285
1686000, -64.758800
1686500, -64.571976
1687000, -64.385337
1687500, -64.197467
1688000, -64.009895
1688500, -63.821213
1689000, -63.632927
1689500, -63.443609
1690000, -63.254776
1690500, -63.065013
1691000, -62.875844
1691500, -62.685835
1692000, -62.496478
1692500, -62.306344
1693000, -62.116937
1693500, -61.926843
1694000, -61.737552
1694500, -61.547609
1695000, -61.358488
1695500, -61.168756
1696000, -60.979904
1696500, -60.790504
1697000, -60.601987
1697500, -60.412885
1698000, -60.224657
1698500, -60.035860
1699000, -59.847971
1699500, -59.659489
1700000, -59.471822
1700500, -59.283488
1701000, -59.095928
1701500, -58.907687
1702000, -58.720169
1702500, -58.531828
1703000, -58.344049
1703500, -58.155332
1704000, -57.967096
1704500, -57.777846
1705000, -57.588878
1705500, -57.398622
1706000, -57.208431
1706500, -57.016785
1707000, -56.825071
1707500, -56.631633
1708000, -56.437721
1708500, -56.241731
1709000, -56.044973
1709500, -55.845893
1710000, -55.645654
1710500, -55.442523
1711000, -55.237687
1711500, -55.029483
1712000, -54.819150
1712500, -54.604814
1713000, -54.387478
1713500, -54.165312
1714000, -53.939390
1714500, -53.707835
1715000, -53.471384
1715500, -53.227952
1716000, -52.978355
1716500, -52.720516
1717000, -52.454790
1717500, -52.178705
1718000, -51.892672
1718500, -51.594008
1719000, -51.282489
1719500, -50.955027
1720000, -50.611259
1720500, -50.247204
1721000, -49.861684
1721500, -49.450210
1722000, -49.010327
1722500, -48.536526
1723000, -48.024649
1723500, -47.467301
1724000, -46.858002
1724500, -46.186335
1725000, -45.442455
1725500, -44.611072
1726000, -43.676704
1726500, -42.617010
1727000, -41.407417
1727500, -40.014313
1728000, -38.399600
1728500, -36.513295
1729000, -34.299156
1729500, -31.689813
1730000, -28.617037
1730500, -25.017112
1731000, -20.857594
1731500, -16.167754
1732000, -11.087723
1732500, -5.896700
1733000, -1.003727
1733500, 3.151893
1734000, 6.235063
1734500, 8.119503
1735000, 8.876114
1735500, 8.696234
1736000, 7.797887
1736500, 6.378592
1737000, 4.591949
1737500, 2.555189
1738000, 0.351533
1738500, -1.956064
1739000, -4.324156
1739500, -6.718941
1740000, -9.118195
1740500, -11.503599
1741000, -13.864973
1741500, -16.192876
1742000, -18.484064
1742500, -20.734984
1743000, -22.946794
1743500, -25.119773
1744000, -27.259253
1744500, -29.369484
1745000, -31.459174
1745500, -33.535981
1746000, -35.612024
1746500, -37.698053
1747000, -39.808597
1747500, -41.955634
1748000, -44.153019
1748500, -46.408975
1749000, -48.729031
1749500, -51.107220
1750000, -53.527418
1750500, -55.953368
1751000, -58.334002
1751500, -60.598653
1752000, -62.673572
1752500, -64.490266
1753000, -66.005963
1753500, -67.207114
1754000, -68.112916
1754500, -68.761006
1755000, -69.200669
1755500, -69.477728
1756000, -69.634476
1756500, -69.702248
1757000, -69.707222
1757500, -69.666152
1758000, -69.593399
1758500, -69.496735
1759000, -69.383956
1759500, -69.258156
1760000, -69.123843
1760500, -68.981825
1761000, -68.835026
1761500, -68.683153
1762000, -68.528367
1762500, -68.369854
1763000, -68.209409
1763500, -68.045963
1764000, -67.881131
1764500, -67.713717
1765000, -67.545241
1765500, -67.374449
1766000, -67.202817
1766500, -67.029062
1767000, -66.854640
1767500, -66.678247
1768000, -66.501319
1768500, -66.322551
1769000, -66.143376
1769500, -65.962489
1770000, -65.781322
1770500, -65.598555
1771000, -65.415614
1771500, -65.231188
1772000, -65.046706
1772500, -64.860863
1773000, -64.675074
1773500, -64.488022
1774000, -64.301127
1774500, -64.113079
1775000, -63.925304
1775500, -63.736489
1776000, -63.548036
1776500, -63.358625
1777000, -63.169670
1777500, -62.979864
1778000, -62.790620
1778500, -62.600599
1779000, -62.411192
1779500, -62.221078
1780000, -62.031660
1780500, -61.841627
1781000, -61.652346
1781500, -61.462469
1782000, -61.273373
1782500, -61.083730
1783000, -60.894931
1783500, -60.705624
1784000, -60.517142
1784500, -60.328127
1785000, -60.139941
1785500, -59.951246
1786000, -59.763397
1786500, -59.574983
1787000, -59.387319
1787500, -59.199032
1788000, -59.011466
1788500, -58.823273
1789000, -58.635703
1789500, -58.447327
1790000, -58.259436
1790500, -58.070642
1791000, -57.882265
1791500, -57.692854
1792000, -57.503615
1792500, -57.313096
1793000, -57.122555
1793500, -56.930583
1794000, -56.738407
1794500, -56.544467
1795000, -56.349930
1795500, -56.153305
1796000, -55.955809
1796500, -55.755946
1797000, -55.554738
1797500, -55.350570
1798000, -55.144543
1798500, -54.935106
1799000, -54.723317
1799500, -54.507376
1800000, -54.288206
1800500, -54.064090
1801000, -53.836013
1801500, -53.602033
1802000, -53.362811
1802500, -53.116377
1803000, -52.863456
1803500, -52.601861
1804000, -52.331863
1804500, -52.051103
1805000, -51.759886
1805500, -51.455341
1806000, -51.137144
1806500, -50.802298
1807000, -50.449959
1807500, -50.076228
1808000, -49.679776
1808500, -49.255690
1809000, -48.801332
1809500, -48.310668
1810000, -47.779254
1810500, -47.198998
1811000, -46.562964
1811500, -45.859666
1812000, -45.078319
1812500, -44.202530
1813000, -43.214840
1813500, -42.090835
1814000, -40.803302
1814500, -39.315436
1815000, -37.585013
1815500, -35.558157
1816000, -33.174512
1816500, -30.364213
1817000, -27.060406
1817500, -23.208763
1818000, -18.801099
1818500, -13.909756
1819000, -8.736389
1819500, -3.624349
1820000, 0.986516
1820500, 4.688462
1821000, 7.232798
1821500, 8.590293
1822000, 8.896985
1822500, 8.366753
1823000, 7.211187
1823500, 5.609816
1824000, 3.697811
1824500, 1.577167
1825000, -0.680141
1825500, -3.019475
1826000, -5.403263
1826500, -7.802232
1827000, -10.197268
1827500, -12.572714
1828000, -14.920089
1828500, -17.231501
1829000, -19.504909
1829500, -21.737801
1830000, -23.932132
1830500, -26.089142
1831000, -28.214826
1831500, -30.314387
1832000, -32.397259
1832500, -34.471975
1833000, -36.551233
1833500, -38.646386
1834000, -40.772077
1834500, -42.940127
1835000, -45.163318
1835500, -47.447883
1836000, -49.795700
1836500, -52.195646
1837000, -54.624111
1837500, -57.036799
1838000, -59.374683
1838500, -61.562684
1839000, -63.528619
1839500, -65.212842
1840000, -66.586452
1840500, -67.650180
1841000, -68.434306
1841500, -68.981976
1842000, -69.343061
1842500, -69.560998
1843000, -69.674366
1843500, -69.710904
1844000, -69.693507
1844500, -69.636519
1845000, -69.552327
1845500, -69.447450
1846000, -69.328626
1846500, -69.198379
1847000, -69.060653
1847500, -68.916033
1848000, -68.767119
1848500, -68.613564
1849000, -68.457324
1849500, -68.297609
1850000, -68.136063
1850500, -67.971680
1851000, -67.805950
1851500, -67.637755
1852000, -67.468506
1852500, -67.297038
1853000, -67.124723
1853500, -66.950372
1854000, -66.775338
1854500, -66.598410
1855000, -66.420929
1855500, -66.241684
1856000, -66.062014
1856500, -65.880709
1857000, -65.699097
1857500, -65.515960
1858000, -65.332626
1858500, -65.147882
1859000, -64.963063
1859500, -64.776955
1860000, -64.590874
1860500, -64.403602
1861000, -64.216464
1861500, -64.028248
1862000, -63.840285
1862500, -63.651346
1863000, -63.462738
1863500, -63.273244
1864000, -63.084181
1864500, -62.894340
1865000, -62.705022
1865500, -62.514990
1866000, -62.325539
1866500, -62.135450
1867000, -61.946030
1867500, -61.756053
1868000, -61.566782
1868500, -61.376971
1869000, -61.187906
1869500, -60.998358
1870000, -60.809623
1870500, -60.620415
1871000, -60.431978
1871500, -60.243058
1872000, -60.054923
1872500, -59.866338
1873000, -59.678520
1873500, -59.490167
1874000, -59.302504
1874500, -59.114261
1875000, -58.926690
1875500, -58.738500
1876000, -58.550849
1876500, -58.362412
1877000, -58.174393
1877500, -57.985506
1878000, -57.796972
1878500, -57.607382
1879000, -57.417864
1879500, -57.227069
1880000, -57.036173
1880500, -56.843867
1881000, -56.651205
1881500, -56.456742
1882000, -56.261562
1882500, -56.064281
1883000, -55.866033
1883500, -55.665317
1884000, -55.463079
1884500, -55.257818
1885000, -55.050552
1885500, -54.839837
1886000, -54.626506
1886500, -54.408878
1887000, -54.187799
1887500, -53.961660
1888000, -53.731298
1888500, -53.494767
1889000, -53.252654
1889500, -53.003098
1890000, -52.746735
1890500, -52.481250
1891000, -52.206841
1891500, -51.921249
1892000, -51.624522
1892500, -51.313767
1893000, -50.988565
1893500, -50.645968
1894000, -50.284665
1894500, -49.900824
1895000, -49.492732
1895500, -49.055288
1896000, -48.585669
1896500, -48.077225
1897000, -47.525257
1897500, -46.920842
1898000, -46.256455
1898500, -45.519691
1899000, -44.698248
1899500, -43.774380
1900000, -42.728848
1900500, -41.534965
1901000, -40.162392
1901500, -38.571103
1902000, -36.714780
1902500, -34.535451
1903000, -31.969096
1903500, -28.944663
1904000, -25.399537
1904500, -21.295180
1905000, -16.654834
1905500, -11.603245
1906000, -6.407760
1906500, -1.464842
1907000, 2.780777
1907500, 5.980547
1908000, 7.983540
1908500, 8.845989
1909000, 8.749072
1909500, 7.913611
1910000, 6.538104
1910500, 4.782925
1911000, 2.766324
1911500, 0.576852
1912000, -1.723208
1912500, -4.086380
1913000, -6.480210
1913500, -8.879294
1914000, -11.267251
1914500, -13.630804
1915000, -15.962972
1915500, -18.257263
1916000, -20.512729
1916500, -22.727847
1917000, -24.905344
1917500, -27.047399
1918000, -29.160634
1918500, -31.251209
1919000, -33.329282
1919500, -35.404218
1920000, -37.489236
1920500, -39.596171
1921000, -41.739599
1921500, -43.930890
1922000, -46.181335
1922500, -48.494558
1923000, -50.868044
1923500, -53.284704
1924000, -55.712790
1924500, -58.099976
1925000, -60.380264
1925500, -62.476867
1926000, -64.322352
1926500, -65.868629
1927000, -67.101329
1927500, -68.034531
1928000, -68.706848
1928500, -69.164543
1929000, -69.456439
1929500, -69.623006
1930000, -69.698993
1930500, -69.708742
1931000, -69.672184
1931500, -69.601550
1932000, -69.507520
1932500, -69.395545
1933000, -69.271459
1933500, -69.137309
1934000, -68.996556
1934500, -68.849605
1935000, -68.698773
1935500, -68.543675
1936000, -68.386087
1936500, -68.225245
1937000, -68.062660
1937500, -67.897385
1938000, -67.730794
1938500, -67.561846
1939000, -67.391852
1939500, -67.219728
1940000, -67.046753
1940500, -66.871822
1941000, -66.696194
1941500, -66.518746
1942000, -66.340728
1942500, -66.161021
1943000, -65.980872
1943500, -65.799161
1944000, -65.617122
1944500, -65.433626
1945000, -65.249915
1945500, -65.064867
1946000, -64.879725
1946500, -64.693360
1947000, -64.507000
1947500, -64.319518
1948000, -64.132151
1948500, -63.943778
1949000, -63.755634
1949500, -63.566575
1950000, -63.377825
1950500, -63.188256
1951000, -62.999098
1951500, -62.809233
1952000, -62.619856
1952500, -62.429821
1953000, -62.240341
1953500, -62.050286
1954000, -61.860878
1954500, -61.670956
1955000, -61.481701
1955500, -61.291960
1956000, -61.102934
1956500, -60.913485
1957000, -60.724793
1957500, -60.535665
1958000, -60.347267
1958500, -60.158434
1959000, -59.970352
1959500, -59.781861
1960000, -59.594070
1960500, -59.405771
1961000, -59.218110
1961500, -59.029911
1962000, -58.842341
1962500, -58.654149
1963000, -58.466415
1963500, -58.277915
1964000, -58.089771
1964500, -57.900792
1965000, -57.712049
1965500, -57.522238
1966000, -57.332409
1966500, -57.141314
1967000, -56.950046
1967500, -56.757345
1968000, -56.564151
1968500, -56.369124
1969000, -56.173273
1969500, -55.975313
1970000, -55.776267
1970500, -55.574655
1971000, -55.371356
1971500, -55.164971
1972000, -54.956443
1972500, -54.744364
1973000, -54.529421
1973500, -54.310041
1974000, -54.086996
1974500, -53.858778
1975000, -53.625973
1975500, -53.386748
1976000, -53.141616
1976500, -52.888816
1977000, -52.628691
1977500, -52.359027
1978000, -52.079943
1978500, -51.789265
1979000, -51.486667
1979500, -51.169345
1980000, -50.836783
1980500, -50.485747
1981000, -50.114815
1981500, -49.720198
1982000, -49.299572
1982500, -48.847847
1983000, -48.361608
1983500, -47.833973
1984000, -47.259517
1984500, -46.628898
1985000, -45.933362
1985500, -45.159958
1986000, -44.294904
1986500, -43.318709
1987000, -42.209916
1987500, -40.939426
1988000, -39.473802
1988500, -37.769096
1989000, -35.774857
1989500, -33.429100
1990000, -30.664945
1990500, -27.412455
1991000, -23.617521
1991500, -19.263352
1992000, -14.414293
1992500, -9.255697
1993000, -4.119372
1993500, 0.562219
1994000, 4.368641
1994500, 7.033762
1995000, 8.505130
1995500, 8.908232
1996000, 8.451026
1996500, 7.349697
1997000, 5.785449
1997500, 3.899957
1998000, 1.795950
1998500, -0.449827
1999000, -2.783496
1999500, -5.163810
2000000, -7.562812
2000500, -9.958483
2001000, -12.336855
2001500, -14.686802
2002000, -17.002679
2002500, -19.279283
2003000, -21.516676
2003500, -23.714286
2004000, -25.875602
2004500, -28.003730
2005000, -30.105917
2005500, -32.189278
2006000, -34.264683
2006500, -36.342284
2007000, -38.435746
2007500, -40.557239
2008000, -42.721051
2008500, -44.937739
2009000, -47.216604
2009500, -49.557916
2010000, -51.953960
2010500, -54.380863
2011000, -56.798211
2011500, -59.146035
2012000, -61.353090
2012500, -63.343771
2013000, -65.058656
2013500, -66.463329
2014000, -67.557647
2014500, -68.367318
2015000, -68.936937
2015500, -69.313984
2016000, -69.544920
2016500, -69.666744
2017000, -69.710396
2017500, -69.697053
2018000, -69.643985
2018500, -69.561574
2019000, -69.459017
2019500, -69.340856
2020000, -69.212147
2020500, -69.074539
2021000, -68.931074
2021500, -68.782008
2022000, -68.629416
2022500, -68.472887
2023000, -68.314034
2023500, -68.152125
2024000, -67.988548
2024500, -67.822413
2025000, -67.654991
2025500, -67.485311
2026000, -67.314592
2026500, -67.141827
2027000, -66.968208
2027500, -66.792708
2028000, -66.616498
2028500, -66.438540
2029000, -66.259999
2029500, -66.079839
2030000, -65.899224
2030500, -65.717112
2031000, -65.534654
2031500, -65.350808
2032000, -65.166732
2032500, -64.981389
2033000, -64.795937
2033500, -64.609324
2034000, -64.422697
2034500, -64.235015
2035000, -64.047432
2035500, -63.858914
2036000, -63.670597
2036500, -63.481427
2037000, -63.292545
2037500, -63.102910
2038000, -62.913670
2038500, -62.723774
2039000, -62.534337
2039500, -62.344301
2040000, -62.154799
2040500, -61.964785
2041000, -61.775389
2041500, -61.585524
2042000, -61.396291
2042500, -61.206627
2043000, -61.017649
2043500, -60.828308
2044000, -60.639669
2044500, -60.450630
2045000, -60.262280
2045500, -60.073542
2046000, -59.885522
2046500, -59.697107
2047000, -59.509329
2047500, -59.321075
2048000, -59.133412
2048500, -58.945253
2049000, -58.757652
2049500, -58.569431
2050000, -58.381597
2050500, -58.193019
2051000, -58.004741
2051500, -57.815663
2052000, -57.626707
2052500, -57.436669
2053000, -57.246527
2053500, -57.055125
2054000, -56.863483
2054500, -56.670344
2055000, -56.476585
2055500, -56.280963
2056000, -56.084416
2056500, -55.885751
2057000, -55.685810
2057500, -55.483218
2058000, -55.278786
2058500, -55.071213
2059000, -54.861368
2059500, -54.647798
2060000, -54.431132
2060500, -54.209896
2061000, -53.984794
2061500, -53.754383
2062000, -53.519025
2062500, -53.276992
2063000, -53.028731
2063500, -52.772567
2064000, -52.508546
2064500, -52.234553
2065000, -51.950634
2065500, -51.654594
2066000, -51.345840
2066500, -51.021654
2067000, -50.681420
2067500, -50.321587
2068000, -49.940633
2068500, -49.534654
2069000, -49.100863
2069500, -48.634165
2070000, -48.130369
2070500, -47.582517
2071000, -46.984197
2071500, -46.325822
2072000, -45.597374
2072500, -44.784594
2073000, -43.872411
2073500, -42.839746
2074000, -41.662733
2074500, -40.309375
2075000, -38.742655
2075500, -36.914983
2076000, -34.771597
2076500, -32.246915
2077000, -29.272432
2077500, -25.781983
2078000, -21.735013
2078500, -17.144726
2079000, -12.125460
2079500, -6.927486
2080000, -1.938856
2080500, 2.396433
2081000, 5.711533
2081500, 7.835756
2082000, 8.805395
2082500, 8.795565
2083000, 8.024315
2083500, 6.695804
2084000, 4.972355
2084500, 2.978220
2085000, 0.802493
2085500, -1.488246
2086000, -3.847319
2086500, -6.238849
2087000, -8.638795
2087500, -11.028088
2088000, -13.394923
2088500, -15.730012
2089000, -18.028928
2089500, -20.287716
2090000, -22.507272
2090500, -24.687972
2091000, -26.834074
2091500, -28.949600
2092000, -31.042526
2092500, -33.120687
2093000, -35.195706
2093500, -37.278476
2094000, -39.383014
2094500, -41.521644
2095000, -43.708091
2095500, -45.951684
2096000, -48.259166
2096500, -50.626682
2097000, -53.040530
2097500, -55.469228
2098000, -57.863869
2098500, -60.157755
2099000, -62.276808
2099500, -64.149744
2100000, -65.727979
2100500, -66.991430
2101000, -67.953806
2101500, -68.649735
2102000, -69.127234
2102500, -69.433249
2103000, -69.611222
2103500, -69.694513
2104000, -69.710450
2104500, -69.677352
2105000, -69.610146
2105500, -69.517624
2106000, -69.407707
2106500, -69.284172
2107000, -69.151411
2107500, -69.010743
2108000, -68.864851
2108500, -68.713872
2109000, -68.559668
2109500, -68.401813
2110000, -68.241777
2110500, -68.078860
2111000, -67.914340
2111500, -67.747380
2112000, -67.579157
2112500, -67.408769
2113000, -67.237348
2113500, -67.063962
2114000, -66.889718
2114500, -66.713663
2115000, -66.536888
2115500, -66.358432
2116000, -66.179384
2116500, -65.998785
2117000, -65.817721
2117500, -65.635221
2118000, -65.452361
2118500, -65.268178
2119000, -65.083752
2119500, -64.898126
2120000, -64.712373
2120500, -64.525520
2121000, -64.338638
2121500, -64.150766
2122000, -63.962982
2122500, -63.774324
2123000, -63.585845
2123500, -63.396573
2124000, -63.207573
2124500, -63.017883
2125000, -62.828575
2125500, -62.638658
2126000, -62.449175
2126500, -62.259148
2127000, -62.069636
2127500, -61.879673
2128000, -61.690289
2128500, -61.500479
2129000, -61.311273
2129500, -61.121686
2130000, -60.932765
2130500, -60.743513
2131000, -60.554916
2131500, -60.365959
2132000, -60.177656
2132500, -59.989012
2133000, -59.801055
2133500, -59.612713
2134000, -59.424954
2134500, -59.236746
2135000, -59.049087
2135500, -58.860971
2136000, -58.673328
2136500, -58.485065
2137000, -58.297127
2137500, -58.108464
2138000, -57.920053
2138500, -57.730811
2139000, -57.541596
2139500, -57.351291
2140000, -57.160810
2140500, -56.969080
2141000, -56.777021
2141500, -56.583408
2142000, -56.389058
2142500, -56.192817
2143000, -55.995558
2143500, -55.796168
2144000, -55.595317
2144500, -55.391726
2145000, -55.186148
2145500, -54.977369
2146000, -54.766164
2146500, -54.551060
2147000, -54.332632
2147500, -54.109502
2148000, -53.882306
2148500, -53.649520
2149000, -53.411454
2149500, -53.166471
2150000, -52.914953
2150500, -52.655147
2151000, -52.386979
2151500, -52.108421
2152000, -51.819445
2152500, -51.517646
2153000, -51.202363
2153500, -50.870940
2154000, -50.522369
2154500, -50.153097
2155000, -49.761478
2155500, -49.343176
2156000, -48.895251
2156500, -48.412303
2157000, -47.889619
2157500, -47.319836
2158000, -46.695808
2158500, -46.006916
2159000, -45.242621
2159500, -44.387180
2160000, -43.423664
2160500, -42.328987
2161000, -41.076755
2161500, -39.632177
2162000, -37.954327
2162500, -35.991593
2163000, -33.684946
2163500, -30.965942
2164000, -27.766166
2164500, -24.027227
2165000, -19.728535
2165500, -14.922826
2166000, -9.782980
2166500, -4.625142
2167000, 0.122050
2167500, 4.032807
2168000, 6.818738
2168500, 8.407590
2169000, 8.909160
2169500, 8.529128
2170000, 7.483351
2170500, 5.959222
2171000, 4.100466
2171500, 2.015153
2172000, -0.219530
2172500, -2.545872
2173000, -4.923479
2173500, -7.321183
2174000, -9.718423
2174500, -12.098728
2175000, -14.452296
2175500, -16.771371
2176000, -19.052675
2176500, -21.293434
2177000, -23.495342
2177500, -25.659707
2178000, -27.791554
2178500, -29.895813
2179000, -31.981206
2179500, -34.056306
2180000, -36.133380
2180500, -38.224000
2181000, -40.342416
2181500, -42.500879
2182000, -44.712219
2182500, -46.984034
2183000, -49.319846
2183500, -51.710772
2184000, -54.136329
2184500, -56.556650
2185000, -58.914926
2185500, -61.139164
2186000, -63.155342
2186500, -64.899725
2187000, -66.336678
2187500, -67.460912
2188000, -68.297861
2188500, -68.888946
2189000, -69.283645
2189500, -69.526930
2190000, -69.658689
2190500, -69.708606
2191000, -69.700628
2191500, -69.650501
2192000, -69.571085
2192500, -69.469800
2193000, -69.353465
2193500, -69.225212
2194000, -69.088859
2194500, -68.945452
2195000, -68.797360
2195500, -68.644626
2196000, -68.488926
2196500, -68.329828
2197000, -68.168672
2197500, -68.004791
2198000, -67.839364
2198500, -67.671605
2199000, -67.502605
2199500, -67.331527
2200000, -67.159421
2200500, -66.985425
2201000, -66.810570
2201500, -66.633970
2202000, -66.456642
2202500, -66.277698
2203000, -66.098155
2203500, -65.917126
2204000, -65.735619
2204500, -65.552736
2205000, -65.369483
2205500, -65.184971
2206000, -65.000208
2206500, -64.814310
2207000, -64.628267
2207500, -64.441184
2208000, -64.254061
2208500, -64.066010
2209000, -63.878038
2209500, -63.689243
2210000, -63.500612
2210500, -63.311244
2211000, -63.122136
2211500, -62.932400
2212000, -62.743023
2212500, -62.553085
2213000, -62.363561
2213500, -62.173550
2214000, -61.984039
2214500, -61.794130
2215000, -61.604766
2215500, -61.415017
2216000, -61.225848
2216500, -61.036348
2217000, -60.847495
2217500, -60.658332
2218000, -60.469784
2218500, -60.280912
2219000, -60.092663
2219500, -59.904119
2220000, -59.716196
2220500, -59.527906
2221000, -59.340151
2221500, -59.151979
2222000, -58.964319
2222500, -58.776221
2223000, -58.588518
2223500, -58.400201
2224000, -58.212150
2224500, -58.023396
2225000, -57.834849
2225500, -57.645434
2226000, -57.455955
2226500, -57.265376
2227000, -57.074551
2227500, -56.882486
2228000, -56.689953
2228500, -56.495815
2229000, -56.300833
2229500, -56.103936
2230000, -55.905935
2230500, -55.705690
2231000, -55.503823
2231500, -55.299141
2232000, -55.092340
2232500, -54.882286
2233000, -54.669556
2233500, -54.452772
2234000, -54.232458
2234500, -54.007314
2235000, -53.777919
2235500, -53.542646
2236000, -53.301760
2236500, -53.053709
2237000, -52.798813
2237500, -52.535173
2238000, -52.262663
2238500, -51.979335
2239000, -51.685047
2239500, -51.377213
2240000, -51.055106
2240500, -50.716126
2241000, -50.358803
2241500, -49.979631
2242000, -49.576803
2242500, -49.145560
2243000, -48.682814
2243500, -48.182553
2244000, -47.639840
2244500, -47.046490
2245000, -46.395003
2245500, -45.673617
2246000, -44.870376
2246500, -43.968601
2247000, -42.949629
2247500, -41.788142
2248000, -40.454734
2248500, -38.911134
2249000, -37.112723
2249500, -35.003643
2250000, -32.521045
2250500, -29.594794
2251000, -26.159575
2251500, -22.169119
2252000, -17.631109
2252500, -12.646252
2253000, -7.451798
2253500, -2.422192
2254000, 1.997015
2254500, 5.427235
2255000, 7.672920
2255500, 8.753454
2256000, 8.832576
2256500, 8.129179
2257000, 6.848596
2257500, 5.159472
2258000, 3.187798
2258500, 1.027598
2259000, -1.254232
2259500, -3.607612
2260000, -5.997561
2260500, -8.396995
2261000, -10.788409
2261500, -13.157602
2262000, -15.496547
2262500, -17.798865
2263000, -20.062321
2263500, -22.285222
2264000, -24.470043
2264500, -26.619002
2265000, -28.737886
2265500, -30.832517
2266000, -32.912348
2266500, -34.986761
2267000, -37.068461
2267500, -39.169596
2268000, -41.304508
2268500, -43.485115
2269000, -45.722960
2269500, -48.023349
2270000, -50.385812
2270500, -52.795684
2271000, -55.225032
2271500, -57.625431
2272000, -59.933032
2272500, -62.072695
2273000, -63.973769
2273500, -65.582881
2274000, -66.878414
2274500, -67.869324
2275000, -68.590442
2275500, -69.087272
2276000, -69.408953
2276500, -69.597705
2277000, -69.689651
2277500, -69.710971
2278000, -69.682540
2278500, -69.617842
2279000, -69.527949
2279500, -69.419111
2280000, -69.297206
2280500, -69.164826
2281000, -69.025299
2281500, -68.879445
2282000, -68.729364
2282500, -68.575026
2283000, -68.417944
2283500, -68.257683
2284000, -68.095470
2284500, -67.930674
2285000, -67.764379
2285500, -67.595850
2286000, -67.426101
2286500, -67.254353
2287000, -67.081585
2287500, -66.906998
2288000, -66.731547
2288500, -66.554416
2289000, -66.376551
2289500, -66.197134
2290000, -66.017113
2290500, -65.835667
2291000, -65.653733
2291500, -65.470482
2292000, -65.286852
2292500, -65.102024
2293000, -64.916940
2293500, -64.730774
2294000, -64.544452
2294500, -64.357147
2295000, -64.169796
2295500, -63.981577
2296000, -63.793429
2296500, -63.604509
2297000, -63.415737
2297500, -63.226285
2298000, -63.037084
2298500, -62.847313
2299000, -62.657877
2299500, -62.467926
2300000, -62.278374
2300500, -62.088387
2301000, -61.898888
2301500, -61.709024
2302000, -61.519677
2302500, -61.329989
2303000, -61.140860
2303500, -60.951450
2304000, -60.762654
2304500, -60.573574
2305000, -60.385074
2305500, -60.196286
2306000, -60.008096
2306500, -59.819655
2307000, -59.631773
2307500, -59.443539
2308000, -59.255796
2308500, -59.067664
2309000, -58.880012
2309500, -58.691906
2310000, -58.504126
2310500, -58.315739
2311000, -58.127568
2311500, -57.938715
2312000, -57.749983
2312500, -57.560356
2313000, -57.370583
2313500, -57.179708
2314000, -56.988523
2314500, -56.796100
2315000, -56.603074
2315500, -56.408395
2316000, -56.212770
2316500, -56.015206
2317000, -55.816456
2317500, -55.615347
2318000, -55.412455
2318500, -55.206670
2319000, -54.998636
2319500, -54.787293
2320000, -54.573023
2320500, -54.354541
2321000, -54.132319
2321500, -53.905139
2322000, -53.673367
2322500, -53.435453
2323000, -53.191612
2323500, -52.940369
2324000, -52.681873
2324500, -52.414192
2325000, -52.137148
2325500, -51.848863
2326000, -51.548848
2326500, -51.234590
2327000, -50.905286
2327500, -50.558164
2328000, -50.191522
2328500, -49.801880
2329000, -49.386864
2329500, -48.941708
2330000, -48.463002
2330500, -47.944224
2331000, -47.380047
2331500, -46.761545
2332000, -46.080204
2332500, -45.323750
2333000, -44.478645
2333500, -43.526534
2334000, -42.446651
2334500, -41.211332
2335000, -39.788277
2335500, -38.135712
2336000, -36.204702
2336500, -33.935318
2337000, -31.261453
2337500, -28.112836
2338000, -24.430488
2338500, -20.187412
2339000, -15.427896
2339500, -10.309790
2340000, -5.136189
2340500, -0.326313
2341000, 3.684992
2341500, 6.592001
2342000, 8.298936
2342500, 8.902551
2343000, 8.601322
2343500, 7.614272
2344000, 6.130962
2344500, 4.301084
2345000, 2.234322
2345500, 0.012253
2346000, -2.307221
2346500, -4.680705
2347000, -7.077932
2347500, -9.475518
2348000, -11.858506
2348500, -14.214767
2349000, -16.537911
2349500, -18.822810
2350000, -21.068208
2350500, -23.273434
2351000, -25.441737
2351500, -27.576233
2352000, -29.683476
2352500, -31.770172
2353000, -33.846495
2353500, -35.922595
2354000, -38.011672
2354500, -40.126167
2355000, -42.280329
2355500, -44.485417
2356000, -46.751217
2356500, -49.080089
2357000, -51.466656
2357500, -53.889729
2358000, -56.313352
2358500, -58.680652
2359000, -60.922128
2359500, -62.962164
2360000, -64.736802
2360500, -66.205202
2361000, -67.360839
2361500, -68.224792
2362000, -68.839023
2362500, -69.251042
2363000, -69.508162
2363500, -69.649289
2364000, -69.706733
2364500, -69.703369
2365000, -69.657299
2365500, -69.580021
2366000, -69.481047
2366500, -69.365628
2367000, -69.238833
2367500, -69.102800
2368000, -68.960433
2368500, -68.812366
2369000, -68.660463
2369500, -68.504641
2370000, -68.346264
2370500, -68.184905
2371000, -68.021686
2371500, -67.856011
2372000, -67.688877
2372500, -67.519601
2373000, -67.349124
2373500, -67.176723
2374000, -67.003310
2374500, -66.828144
2375000, -66.652113
2375500, -66.474460
2376000, -66.296073
2376500, -66.116193
2377000, -65.935706
2377500, -65.753850
2378000, -65.571499
2378500, -65.387887
2379000, -65.203893
2379500, -65.018759
2380000, -64.833366
2380500, -64.646942
2381000, -64.460355
2381500, -64.272840
2382000, -64.085273
2382500, -63.896897
2383000, -63.708577
2383500, -63.519534
2384000, -63.330631
2384500, -63.141102
2385000, -62.951819
2385500, -62.762014
2386000, -62.572523
2386500, -62.382565
2387000, -62.192993
2387500, -62.003038
2388000, -61.813563
2388500, -61.623753
2389000, -61.434434
2389500, -61.244814
2390000, -61.055737
2390500, -60.866426
2391000, -60.677684
2391500, -60.488684
2392000, -60.300233
2392500, -60.111530
2393000, -59.923403
2393500, -59.735031
2394000, -59.547169
2394500, -59.358972
2395000, -59.171231
2395500, -58.983132
2396000, -58.795475
2396500, -58.607351
2397000, -58.419489
2397500, -58.231027
2398000, -58.042734
2398500, -57.853779
2399000, -57.664843
2399500, -57.474985
2400000, -57.284907
2400500, -57.093721
2401000, -56.902169
2401500, -56.709305
2402000, -56.515723
2402500, -56.320446
2403000, -56.124134
2403500, -55.925863
2404000, -55.726248
2404500, -55.524173
2405000, -55.320174
2405500, -55.113212
2406000, -54.903882
2406500, -54.691060
2407000, -54.475092
2407500, -54.254768
2408000, -54.030514
2408500, -53.801181
2409000, -53.566905
2409500, -53.326221
2410000, -53.079299
2410500, -52.824732
2411000, -52.562393
2411500, -52.290431
2412000, -52.008616
2412500, -51.715128
2413000, -51.409120
2413500, -51.088146
2414000, -50.751329
2414500, -50.395572
2415000, -50.019092
2415500, -49.618423
2416000, -49.190593
2416500, -48.730818
2417000, -48.234958
2417500, -47.696400
2418000, -47.108875
2418500, -46.463238
2419000, -45.749717
2419500, -44.954958
2420000, -44.064356
2420500, -43.057819
2421000, -41.912290
2421500, -40.597404
2422000, -39.077286
2422500, -37.306491
2423000, -35.231794
2423500, -32.789502
2424000, -29.911369
2424500, -26.529314
2425000, -22.595951
2425500, -18.110178
2426000, -13.162208
2426500, -7.973166
2427000, -2.906837
2427500, 1.594031
2428000, 5.135542
2428500, 7.502927
2429000, 8.694186
2429500, 8.864489
2430000, 8.229351
2430500, 6.998702
2431000, 5.343822
2431500, 3.396117
2432000, 1.250970
2432500, -1.020846
2433000, -3.369176
2433500, -5.756382
2434000, -8.156285
2434500, -10.548760
2435000, -12.921067
2435500, -15.262916
2436000, -17.569396
2436500, -19.836517
2437000, -22.063941
2437500, -24.251949
2438000, -26.404562
2438500, -28.525785
2439000, -30.622941
2439500, -32.703598
2440000, -34.778625
2440500, -36.858880
2441000, -38.957970
2441500, -41.088533
2442000, -43.264393
2442500, -45.495757
2443000, -47.790112
2443500, -50.146164
2444000, -52.552751
2444500, -54.981475
2445000, -57.388087
2445500, -59.707999
2446000, -61.868077
2446500, -63.795345
2447000, -65.435465
2447500, -66.762067
2448000, -67.782671
2448500, -68.528516
2449000, -69.046048
2449500, -69.382927
2450000, -69.583705
2450500, -69.683681
2451000, -69.711479
2451500, -69.686960
2452000, -69.625769
2452500, -69.537680
2453000, -69.430866
2453500, -69.309730
2454000, -69.178651
2454500, -69.039387
2455000, -68.894479
2455500, -68.744410
2456000, -68.590839
2456500, -68.433641
2457000, -68.274052
2457500, -68.111654
2458000, -67.947476
2458500, -67.780956
2459000, -67.613013
2459500, -67.443014
2460000, -67.271830
2460500, -67.098793
2461000, -66.924752
2461500, -66.749018
2462000, -66.572419
2462500, -66.394258
2463000, -66.215361
2463500, -66.035030
2464000, -65.854092
2464500, -65.671837
2465000, -65.489082
2465500, -65.305121
2466000, -65.120777
2466500, -64.935349
2467000, -64.749655
2467500, -64.562981
2468000, -64.376139
2468500, -64.188424
2469000, -64.000654
2469500, -63.812134
2470000, -63.623655
2470500, -63.434502
2471000, -63.245481
2471500, -63.055887
2472000, -62.866536
2472500, -62.676699
2473000, -62.487162
2473500, -62.297204
2474000, -62.107622
2474500, -61.917707
2475000, -61.728244
2475500, -61.538480
2476000, -61.349188
2476500, -61.159639
2477000, -60.970619
2477500, -60.781401
2478000, -60.592715
2478500, -60.403795
2479000, -60.215398
2479500, -60.026785
2480000, -59.838730
2480500, -59.650430
2481000, -59.462591
2481500, -59.274436
2482000, -59.086703
2482500, -58.898640
2483000, -58.710944
2483500, -58.522773
2484000, -58.334809
2484500, -58.146256
2485000, -57.957833
2485500, -57.768738
2486000, -57.579569
2486500, -57.389457
2487000, -57.199056
2487500, -57.007547
2488000, -56.815619
2488500, -56.622304
2489000, -56.428158
2489500, -56.232275
2490000, -56.035269
2490500, -55.836284
2491000, -55.635776
2491500, -55.432709
2492000, -55.227578
2492500, -55.019416
2493000, -54.808768
2493500, -54.594441
2494000, -54.376745
2494500, -54.154548
2495000, -53.928230
2495500, -53.696591
2496000, -53.459677
2496500, -53.216098
2497000, -52.965978
2497500, -52.707912
2498000, -52.441563
2498500, -52.165153
2499000, -51.878400
2499500, -51.579283
2500000, -51.266886
2500500, -53.166613
2501000, -54.813461
2501500, -56.293776
2502000, -57.661737
2502500, -58.956224
2503000, -60.192777
2503500, -61.380926
2504000, -62.515936
2504500, -63.595452
2505000, -64.609248
2505500, -65.554262
2506000, -66.422823
2506500, -67.216197
2507000, -67.931580
2507500, -68.574705
2508000, -69.146293
2508500, -69.654588
2509000, -70.101808
2509500, -70.496807
2510000, -70.841789
2510500, -71.145156
2511000, -71.408425
2511500, -71.639150
2512000, -71.837979
2512500, -72.011607
2513000, -72.159871
2513500, -72.288709
2514000, -72.397277
2514500, -72.490906
2515000, -72.568218
2515500, -72.634064
2516000, -72.686651
2516500, -72.730460
2517000, -72.763378
2517500, -72.789604
2518000, -72.806780
2518500, -72.818887
2519000, -72.823383
2519500, -72.824079
2520000, -72.818293
2520500, -72.809708
2521000, -72.795531
2521500, -72.779346
2522000, -72.758278
2522500, -72.735833
2523000, -72.709070
2523500, -72.681435
2524000, -72.649938
2524500, -72.617977
2525000, -72.582523
2525500, -72.546935
2526000, -72.508157
2526500, -72.469515
2527000, -72.427931
2527500, -72.386705
2528000, -72.342743
2528500, -72.299324
2529000, -72.253339
2529500, -72.208053
2530000, -72.160345
2530500, -72.113465
2531000, -72.064286
2531500, -72.016045
2532000, -71.965609
2532500, -71.916205
2533000, -71.864693
2533500, -71.814292
2534000, -71.761860
2534500, -71.710607
2535000, -71.657392
2535500, -71.605417
2536000, -71.551539
2536500, -71.498957
2537000, -71.444525
2537500, -71.391436
2538000, -71.336546
2538500, -71.283042
2539000, -71.227780
2539500, -71.173943
2540000, -71.118389
2540500, -71.064293
2541000, -71.008517
2541500, -70.954231
2542000, -70.898295
2542500, -70.843875
2543000, -70.787831
2543500, -70.733327
2544000, -70.677225
2544500, -70.622688
2545000, -70.566578
2545500, -70.512054
2546000, -70.455983
2546500, -70.401519
2547000, -70.345530
2547500, -70.291168
2548000, -70.235304
2548500, -70.181086
2549000, -70.125386
2549500, -70.071349
2550000, -70.015850
2550500, -69.962031
2551000, -69.906766
2551500, -69.853190
2552000, -69.798179
2552500, -69.744868
2553000, -69.690136
2553500, -69.637114
2554000, -69.582686
2554500, -69.529980
2555000, -69.475883
2555500, -69.423519
2556000, -69.369778
2556500, -69.317782
2557000, -69.264422
2557500, -69.212819
2558000, -69.159865
2558500, -69.108678
2559000, -69.056153
2559500, -69.005406
2560000, -68.953333
2560500, -68.903041
2561000, -68.851426
2561500, -68.801593
2562000, -68.750442
2562500, -68.701078
2563000, -68.650403
2563500, -68.601520
2564000, -68.551335
2564500, -68.502948
2565000, -68.453268
2565500, -68.405393
2566000, -68.356234
2566500, -68.308886
2567000, -68.260264
2567500, -68.213459
2568000, -68.165387
2568500, -68.119139
2569000, -68.071634
2569500, -68.025957
2570000, -67.979032
2570500, -67.933938
2571000, -67.887592
2571500, -67.843072
2572000, -67.797299
2572500, -67.753349
2573000, -67.708149
2573500, -67.664774
2574000, -67.620152
2574500, -67.577356
2575000, -67.533319
2575500, -67.491112
2576000, -67.447669
2576500, -67.406059
2577000, -67.363219
2577500, -67.322216
2578000, -67.279990
2578500, -67.239602
2579000, -67.197998
2579500, -67.158236
2580000, -67.117263
2580500, -67.078136
2581000, -67.037803
2581500, -66.999319
2582000, -66.959634
2582500, -66.921792
2583000, -66.882740
2583500, -66.845522
2584000, -66.807089
2584500, -66.770486
2585000, -66.732668
2585500, -66.696679
2586000, -66.659476
2586500, -66.624102
2587000, -66.587518
2587500, -66.552762
2588000, -66.516801
2588500, -66.482670
2589000, -66.447338
2589500, -66.413837
2590000, -66.379139
2590500, -66.346275
2591000, -66.312218
2591500, -66.279996
2592000, -66.246586
2592500, -66.215013
2593000, -66.182256
2593500, -66.151337
2594000, -66.119238
2594500, -66.088979
2595000, -66.057544
2595500, -66.027950
2596000, -65.997184
2596500, -65.968260
2597000, -65.938156
2597500, -65.909881
2598000, -65.880418
2598500, -65.852774
2599000, -65.823939
2599500, -65.796919
2600000, -65.768706
2600500, -65.742306
2601000, -65.714715
2601500, -65.688934
2602000, -65.661965
2602500, -65.636806
2603000, -65.610461
2603500, -65.585928
2604000, -65.560210
2604500, -65.536304
2605000, -65.511218
2605500, -65.487944
2606000, -65.463492
2606500, -65.440853
2607000, -65.417039
2607500, -65.395038
2608000, -65.371865
2608500, -65.350506
2609000, -65.327977
2609500, -65.307262
2610000, -65.285380
2610500, -65.265311
2611000, -65.244078
2611500, -65.224658
2612000, -65.204076
2612500, -65.185306
2613000, -65.165375
2613500, -65.147257
2614000, -65.127979
2614500, -65.110512
2615000, -65.091888
2615500, -65.075074
2616000, -65.057103
2616500, -65.040940
2617000, -65.023622
2617500, -65.008110
2618000, -64.991443
2618500, -64.976578
2619000, -64.960549
2619500, -64.946310
2620000, -64.930900
2620500, -64.917270
2621000, -64.902466
2621500, -64.889437
2622000, -64.875231
2622500, -64.862796
2623000, -64.849182
2623500, -64.837336
2624000, -64.824310
2624500, -64.813049
2625000, -64.800608
2625500, -64.789929
2626000, -64.778069
2626500, -64.767968
2627000, -64.756687
2627500, -64.747162
2628000, -64.736455
2628500, -64.727502
2629000, -64.717366
2629500, -64.708980
2630000, -64.699411
2630500, -64.691588
2631000, -64.682580
2631500, -64.675315
2632000, -64.666865
2632500, -64.660152
2633000, -64.652252
2633500, -64.646086
2634000, -64.638730
2634500, -64.633103
2635000, -64.626286
2635500, -64.621192
2636000, -64.614904
2636500, -64.610335
2637000, -64.604570
2637500, -64.600518
2638000, -64.595266
2638500, -64.591722
2639000, -64.586975
2639500, -64.583930
2640000, -64.579678
2640500, -64.577122
2641000, -64.573355
2641500, -64.571278
2642000, -64.567987
2642500, -64.566378
2643000, -64.563550
2643500, -64.562398
2644000, -64.560023
2644500, -64.559316
2645000, -64.557381
2645500, -64.557108
2646000, -64.555602
2646500, -64.555749
2647000, -64.554659
2647500, -64.555214
2648000, -64.554526
2648500, -64.555477
2649000, -64.555179
2649500, -64.556511
2650000, -64.556588
2650500, -64.558288
2651000, -64.558727
2651500, -64.560781
2652000, -64.561568
2652500, -64.563961
2653000, -64.565081
2653500, -64.567798
2654000, -64.569237
2654500, -64.572265
2655000, -64.574008
2655500, -64.577331
2656000, -64.579363
2656500, -64.582967
2657000, -64.585273
2657500, -64.589142
2658000, -64.591707
2658500, -64.595826
2659000, -64.598635
2659500, -64.602990
2660000, -64.606027
2660500, -64.610602
2661000, -64.613853
2661500, -64.618633
2662000, -64.622083
2662500, -64.627052
2663000, -64.630686
2663500, -64.635831
2664000, -64.639633
2664500, -64.644938
2665000, -64.648895
2665500, -64.654346
2666000, -64.658443
2666500, -64.664025
2667000, -64.668247
2667500, -64.673946
2668000, -64.678280
2668500, -64.684082
2669000, -64.688513
2669500, -64.694405
2670000, -64.698920
2670500, -64.704888
2671000, -64.709473
2671500, -64.715504
2672000, -64.720148
2672500, -64.726229
2673000, -64.730917
2673500, -64.737036
2674000, -64.741758
2674500, -64.747902
2675000, -64.752645
2675500, -64.758803
2676000, -64.763555
2676500, -64.769717
2677000, -64.774467
2677500, -64.780621
2678000, -64.785359
2678500, -64.791494
2679000, -64.796210
2679500, -64.802316
2680000, -64.807000
2680500, -64.813068
2681000, -64.817710
2681500, -64.823730
2682000, -64.828322
2682500, -64.834286
2683000, -64.838819
2683500, -64.844719
2684000, -64.849184
2684500, -64.855013
2685000, -64.859403
2685500, -64.865152
2686000, -64.869461
2686500, -64.875123
2687000, -64.879344
2687500, -64.884913
2688000, -64.889039
2688500, -64.894510
2689000, -64.898535
2689500, -64.903901
2690000, -64.907820
2690500, -64.913077
2691000, -64.916886
2691500, -64.922029
2692000, -64.925722
2692500, -64.930747
2693000, -64.934321
2693500, -64.939223
2694000, -64.942674
2694500, -64.947450
2695000, -64.950775
2695500, -64.955423
2696000, -64.958619
2696500, -64.963135
2697000, -64.966200
2697500, -64.970582
2698000, -64.973513
2698500, -64.977760
2699000, -64.980555
2699500, -64.984665
2700000, -64.987324
2700500, -64.991295
2701000, -64.993816
2701500, -64.997648
2702000, -65.000031
2702500, -65.003722
2703000, -65.005965
2703500, -65.009512
2704000, -65.011611
2704500, -65.015012
2705000, -65.016964
2705500, -65.020218
2706000, -65.022023
2706500, -65.025129
2707000, -65.026789
2707500, -65.029748
2708000, -65.031263
2708500, -65.034077
2709000, -65.035448
2709500, -65.038119
2710000, -65.039349
2710500, -65.041878
2711000, -65.042969
2711500, -65.045359
2712000, -65.046313
2712500, -65.048567
2713000, -65.049388
2713500, -65.051508
2714000, -65.052198
2714500, -65.054187
2715000, -65.054749
2715500, -65.056611
2716000, -65.057048
2716500, -65.058786
2717000, -65.059101
2717500, -65.060718
2718000, -65.060915
2718500, -65.062415
2719000, -65.062497
2719500, -65.063882
2720000, -65.063853
2720500, -65.065128
2721000, -65.064991
2721500, -65.066159
2722000, -65.065919
2722500, -65.066983
2723000, -65.066642
2723500, -65.067606
2724000, -65.067169
2724500, -65.068037
2725000, -65.067507
2725500, -65.068283
2726000, -65.067663
2726500, -65.068351
2727000, -65.067646
2727500, -65.068249
2728000, -65.067462
2728500, -65.067984
2729000, -65.067118
2729500, -65.067563
2730000, -65.066624
2730500, -65.066994
2731000, -65.065984
2731500, -65.066285
2732000, -65.065208
2732500, -65.065443
2733000, -65.064302
2733500, -65.064474
2734000, -65.063273
2734500, -65.063386
2735000, -65.062129
2735500, -65.062186
2736000, -65.060877
2736500, -65.060881
2737000, -65.059522
2737500, -65.059479
2738000, -65.058074
2738500, -65.057984
2739000, -65.056537
2739500, -65.056405
2740000, -65.054918
2740500, -65.054748
2741000, -65.053224
2741500, -65.053018
2742000, -65.051462
2742500, -65.051223
2743000, -65.049636
2743500, -65.049368
2744000, -65.047754
2744500, -65.047459
2745000, -65.045821
2745500, -65.045502
2746000, -65.043843
2746500, -65.043502
2747000, -65.041825
2747500, -65.041466
2748000, -65.039772
2748500, -65.039397
2749000, -65.037690
2749500, -65.037302
2750000, -65.035584
2750500, -65.035186
2751000, -65.033459
2751500, -65.033052
2752000, -65.031319
2752500, -65.030906
2753000, -65.029169
2753500, -65.028751
2754000, -65.027013
2754500, -65.026593
2755000, -65.024855
2755500, -65.024436
2756000, -65.022699
2756500, -65.022282
2757000, -65.020550
2757500, -65.020137
2758000, -65.018411
2758500, -65.018003
2759000, -65.016284
2759500, -65.015884
2760000, -65.014174
2760500, -65.013783
2761000, -65.012084
2761500, -65.011703
2762000, -65.010017
2762500, -65.009648
2763000, -65.007975
2763500, -65.007619
2764000, -65.005961
2764500, -65.005619
2765000, -65.003978
2765500, -65.003652
2766000, -65.002027
2766500, -65.001718
2767000, -65.000112
2767500, -64.999820
2768000, -64.998233
2768500, -64.997960
2769000, -64.996392
2769500, -64.996136
2770000, -64.994587
2770500, -64.994349
2771000, -64.992819
2771500, -64.992599
2772000, -64.991089
2772500, -64.990888
2773000, -64.989398
2773500, -64.989217
2774000, -64.987748
2774500, -64.987587
2775000, -64.986139
2775500, -64.985999
2776000, -64.984573
2776500, -64.984454
2777000, -64.983050
2777500, -64.982953
2778000, -64.981573
2778500, -64.981497
2779000, -64.980140
2779500, -64.980088
2780000, -64.978755
2780500, -64.978725
2781000, -64.977416
2781500, -64.977409
2782000, -64.976125
2782500, -64.976141
2783000, -64.974881
2783500, -64.974922
2784000, -64.973687
2784500, -64.973751
2785000, -64.972541
2785500, -64.972629
2786000, -64.971444
2786500, -64.971555
2787000, -64.970395
2787500, -64.970531
2788000, -64.969396
2788500, -64.969556
2789000, -64.968446
2789500, -64.968629
2790000, -64.967544
2790500, -64.967752
2791000, -64.966691
2791500, -64.966922
2792000, -64.965886
2792500, -64.966140
2793000, -64.965129
2793500, -64.965406
2794000, -64.964418
2794500, -64.964719
2795000, -64.963755
2795500, -64.964078
2796000, -64.963138
2796500, -64.963483
2797000, -64.962566
2797500, -64.962933
2798000, -64.962039
2798500, -64.962427
2799000, -64.961556
2799500, -64.961965
2800000, -64.961116
2800500, -64.961546
2801000, -64.960718
2801500, -64.961168
2802000, -64.960361
2802500, -64.960832
2803000, -64.960045
2803500, -64.960535
2804000, -64.959769
2804500, -64.960277
2805000, -64.959531
2805500, -64.960058
2806000, -64.959330
2806500, -64.959875
2807000, -64.959165
2807500, -64.959727
2808000, -64.959036
2808500, -64.959615
2809000, -64.958941
2809500, -64.959536
2810000, -64.958879
2810500, -64.959489
2811000, -64.958848
2811500, -64.959473
2812000, -64.958848
2812500, -64.959487
2813000, -64.958878
2813500, -64.959531
2814000, -64.958935
2814500, -64.959601
2815000, -64.959020
2815500, -64.959699
2816000, -64.959130
2816500, -64.959821
2817000, -64.959266
2817500, -64.959967
2818000, -64.959424
2818500, -64.960137
2819000, -64.959605
2819500, -64.960328
2820000, -64.959806
2820500, -64.960539
2821000, -64.960028
2821500, -64.960769
2822000, -64.960268
2822500, -64.961018
2823000, -64.960526
2823500, -64.961283
2824000, -64.960800
2824500, -64.961565
2825000, -64.961089
2825500, -64.961860
2826000, -64.961392
2826500, -64.962170
2827000, -64.961708
2827500, -64.962491
2828000, -64.962036
2828500, -64.962824
2829000, -64.962375
2829500, -64.963168
2830000, -64.962724
2830500, -64.963520
2831000, -64.963081
2831500, -64.963881
2832000, -64.963446
2832500, -64.964249
2833000, -64.963817
2833500, -64.964623
2834000, -64.964195
2834500, -64.965002
2835000, -64.964577
2835500, -64.965386
2836000, -64.964963
2836500, -64.965773
2837000, -64.965352
2837500, -64.966163
2838000, -64.965744
2838500, -64.966555
2839000, -64.966136
2839500, -64.966947
2840000, -64.966530
2840500, -64.967340
2841000, -64.966923
2841500, -64.967732
2842000, -64.967315
2842500, -64.968123
2843000, -64.967706
2843500, -64.968512
2844000, -64.968094
2844500, -64.968899
2845000, -64.968479
2845500, -64.969282
2846000, -64.968861
2846500, -64.969661
2847000, -64.969239
2847500, -64.970036
2848000, -64.969612
2848500, -64.970406
2849000, -64.969980
2849500, -64.970770
2850000, -64.970342
2850500, -64.971129
2851000, -64.970698
2851500, -64.971481
2852000, -64.971047
2852500, -64.971826
2853000, -64.971389
2853500, -64.972164
2854000, -64.971724
2854500, -64.972495
2855000, -64.972051
2855500, -64.972817
2856000, -64.972370
2856500, -64.973132
2857000, -64.972681
2857500, -64.973438
2858000, -64.972983
2858500, -64.973735
2859000, -64.973276
2859500, -64.974023
2860000, -64.973560
2860500, -64.974302
2861000, -64.973834
2861500, -64.974571
2862000, -64.974099
2862500, -64.974831
2863000, -64.974355
2863500, -64.975081
2864000, -64.974601
2864500, -64.975322
2865000, -64.974837
2865500, -64.975552
2866000, -64.975063
2866500, -64.975773
2867000, -64.975279
2867500, -64.975983
2868000, -64.975485
2868500, -64.976184
2869000, -64.975681
2869500, -64.976375
2870000, -64.975867
2870500, -64.976555
2871000, -64.976044
2871500, -64.976726
2872000, -64.976210
2872500, -64.976886
2873000, -64.976366
2873500, -64.977037
2874000, -64.976512
2874500, -64.977178
2875000, -64.976649
2875500, -64.977310
2876000, -64.976776
2876500, -64.977431
2877000, -64.976894
2877500, -64.977544
2878000, -64.977002
2878500, -64.977647
2879000, -64.977101
2879500, -64.977740
2880000, -64.977190
2880500, -64.977825
2881000, -64.977271
2881500, -64.977901
2882000, -64.977343
2882500, -64.977968
2883000, -64.977407
2883500, -64.978027
2884000, -64.977462
2884500, -64.978078
2885000, -64.977509
2885500, -64.978120
2886000, -64.977548
2886500, -64.978155
2887000, -64.977579
2887500, -64.978181
2888000, -64.977603
2888500, -64.978201
2889000, -64.977619
2889500, -64.978213
2890000, -64.977628
2890500, -64.978219
2891000, -64.977631
2891500, -64.978217
2892000, -64.977626
2892500, -64.978209
2893000, -64.977616
2893500, -64.978195
2894000, -64.977599
2894500, -64.978175
2895000, -64.977577
2895500, -64.978149
2896000, -64.977549
2896500, -64.978118
2897000, -64.977515
2897500, -64.978081
2898000, -64.977476
2898500, -64.978040
2899000, -64.977433
2899500, -64.977993
2900000, -64.977385
2900500, -64.977942
2901000, -64.977332
2901500, -64.977887
2902000, -64.977276
2902500, -64.977828
2903000, -64.977215
2903500, -64.977766
2904000, -64.977151
2904500, -64.977699
2905000, -64.977083
2905500, -64.977630
2906000, -64.977013
2906500, -64.977557
2907000, -64.976939
2907500, -64.977481
2908000, -64.976863
2908500, -64.977403
2909000, -64.976784
2909500, -64.977323
2910000, -64.976703
2910500, -64.977241
2911000, -64.976620
2911500, -64.977156
2912000, -64.976535
2912500, -64.977070
2913000, -64.976449
2913500, -64.976982
2914000, -64.976361
2914500, -64.976894
2915000, -64.976272
2915500, -64.976804
2916000, -64.976182
2916500, -64.976713
2917000, -64.976092
2917500, -64.976621
2918000, -64.976000
2918500, -64.976529
2919000, -64.975909
2919500, -64.976437
2920000, -64.975817
2920500, -64.976344
2921000, -64.975724
2921500, -64.976252
2922000, -64.975632
2922500, -64.976159
2923000, -64.975541
2923500, -64.976067
2924000, -64.975449
2924500, -64.975975
2925000, -64.975358
2925500, -64.975884
2926000, -64.975268
2926500, -64.975794
2927000, -64.975178
2927500, -64.975704
2928000, -64.975090
2928500, -64.975616
2929000, -64.975002
2929500, -64.975528
2930000, -64.974916
2930500, -64.975442
2931000, -64.974830
2931500, -64.975357
2932000, -64.974746
2932500, -64.975273
2933000, -64.974664
2933500, -64.975191
2934000, -64.974583
2934500, -64.975110
2935000, -64.974504
2935500, -64.975031
2936000, -64.974426
2936500, -64.974954
2937000, -64.974350
2937500, -64.974878
2938000, -64.974276
2938500, -64.974805
2939000, -64.974204
2939500, -64.974733
2940000, -64.974133
2940500, -64.974663
2941000, -64.974065
2941500, -64.974595
2942000, -64.973999
2942500, -64.974530
2943000, -64.973935
2943500, -64.974466
2944000, -64.973872
2944500, -64.974404
2945000, -64.973812
2945500, -64.974345
2946000, -64.973754
2946500, -64.974287
2947000, -64.973698
2947500, -64.974232
2948000, -64.973645
2948500, -64.974179
2949000, -64.973593
2949500, -64.974128
2950000, -64.973544
2950500, -64.974080
2951000, -64.973497
2951500, -64.974033
2952000, -64.973452
2952500, -64.973989
2953000, -64.973409
2953500, -64.973947
2954000, -64.973369
2954500, -64.973907
2955000, -64.973330
2955500, -64.973869
2956000, -64.973294
2956500, -64.973833
2957000, -64.973260
2957500, -64.973799
2958000, -64.973227
2958500, -64.973768
2959000, -64.973197
2959500, -64.973738
2960000, -64.973169
2960500, -64.973711
2961000, -64.973143
2961500, -64.973685
2962000, -64.973119
2962500, -64.973662
2963000, -64.973097
2963500, -64.973640
2964000, -64.973077
2964500, -64.973620
2965000, -64.973058
2965500, -64.973602
2966000, -64.973041
2966500, -64.973586
2967000, -64.973027
2967500, -64.973571
2968000, -64.973013
2968500, -64.973559
2969000, -64.973002
2969500, -64.973547
2970000, -64.972992
2970500, -64.973538
2971000, -64.972984
2971500, -64.973530
2972000, -64.972977
2972500, -64.973524
2973000, -64.972972
2973500, -64.973519
2974000, -64.972968
2974500, -64.973515
2975000, -64.972966
2975500, -64.973513
2976000, -64.972965
2976500, -64.973512
2977000, -64.972965
2977500, -64.973512
2978000, -64.972966
2978500, -64.973514
2979000, -64.972969
2979500, -64.973516
2980000, -64.972972
2980500, -64.973520
2981000, -64.972977
2981500, -64.973525
2982000, -64.972983
2982500, -64.973531
2983000, -64.972989
2983500, -64.973537
2984000, -64.972997
2984500, -64.973545
2985000, -64.973005
2985500, -64.973553
2986000, -64.973015
2986500, -64.973562
2987000, -64.973025
2987500, -64.973572
2988000, -64.973035
2988500, -64.973583
2989000, -64.973047
2989500, -64.973594
2990000, -64.973059
2990500, -64.973606
2991000, -64.973071
2991500, -64.973618
2992000, -64.973084
2992500, -64.973631
2993000, -64.973097
2993500, -64.973644
2994000, -64.973111
2994500, -64.973657
2995000, -64.973125
2995500, -64.973671
2996000, -64.973140
2996500, -64.973686
2997000, -64.973155
2997500, -64.973700
2998000, -64.973170
2998500, -64.973715
2999000, -64.973185
2999500, -64.973730
3000000, -64.973201
