# ./result/hh_euler_0500.txt
# dt = 500 [usec]
# t [usec], V [mV]
0, -65.000000
500, -64.998509
1000, -64.997061
1500, -64.995651
2000, -64.994272
2500, -64.992922
3000, -64.991599
3500, -64.990299
4000, -64.989022
4500, -64.987766
5000, -64.986530
5500, -64.985315
6000, -64.984119
6500, -64.982943
7000, -64.981785
7500, -64.980647
8000, -64.979528
8500, -64.978428
9000, -64.977346
9500, -64.976284
10000, -64.975241
10500, -64.974217
11000, -64.973213
11500, -64.972227
12000, -64.971261
12500, -64.970315
13000, -64.969388
13500, -64.968480
14000, -64.967592
14500, -64.966724
15000, -64.965875
15500, -64.965046
16000, -64.964236
16500, -64.963446
17000, -64.962676
17500, -64.961925
18000, -64.961194
18500, -64.960483
19000, -64.959791
19500, -64.959118
20000, -64.958465
20500, -64.957831
21000, -64.957217
21500, -64.956621
22000, -64.956045
22500, -64.955488
23000, -64.954950
23500, -64.954430
24000, -64.953929
24500, -64.953447
25000, -64.952983
25500, -64.952537
26000, -64.952110
26500, -64.951701
27000, -64.951309
27500, -64.950935
28000, -64.950579
28500, -64.950240
29000, -64.949919
29500, -64.949614
30000, -64.949326
30500, -64.949055
31000, -64.948801
31500, -64.948562
32000, -64.948340
32500, -64.948134
33000, -64.947943
33500, -64.947768
34000, -64.947608
34500, -64.947464
35000, -64.947334
35500, -64.947218
36000, -64.947118
36500, -64.947031
37000, -64.946958
37500, -64.946899
38000, -64.946854
38500, -64.946821
39000, -64.946802
39500, -64.946796
40000, -64.946802
40500, -64.946820
41000, -64.946851
41500, -64.946893
42000, -64.946947
42500, -64.947012
43000, -64.947089
43500, -64.947176
44000, -64.947274
44500, -64.947382
45000, -64.947500
45500, -64.947629
46000, -64.947766
46500, -64.947914
47000, -64.948070
47500, -64.948235
48000, -64.948409
48500, -64.948591
49000, -64.948782
49500, -64.948980
50000, -64.949186
50500, -64.949399
51000, -64.949620
51500, -64.949848
52000, -64.950082
52500, -64.950323
53000, -64.950570
53500, -64.950823
54000, -64.951082
54500, -64.951346
55000, -64.951616
55500, -64.951890
56000, -64.952170
56500, -64.952454
57000, -64.952743
57500, -64.953036
58000, -64.953333
58500, -64.953633
59000, -64.953938
59500, -64.954245
60000, -64.954556
60500, -64.954870
61000, -64.955186
61500, -64.955505
62000, -64.955827
62500, -64.956150
63000, -64.956475
63500, -64.956803
64000, -64.957131
64500, -64.957462
65000, -64.957793
65500, -64.958125
66000, -64.958459
66500, -64.958793
67000, -64.959127
67500, -64.959462
68000, -64.959797
68500, -64.960132
69000, -64.960467
69500, -64.960802
70000, -64.961137
70500, -64.961470
71000, -64.961803
71500, -64.962135
72000, -64.962467
72500, -64.962797
73000, -64.963125
73500, -64.963453
74000, -64.963779
74500, -64.964103
75000, -64.964425
75500, -64.964746
76000, -64.965064
76500, -64.965381
77000, -64.965695
77500, -64.966007
78000, -64.966316
78500, -64.966623
79000, -64.966928
79500, -64.967229
80000, -64.967528
80500, -64.967824
81000, -64.968117
81500, -64.968407
82000, -64.968694
82500, -64.968978
83000, -64.969258
83500, -64.969535
84000, -64.969809
84500, -64.970079
85000, -64.970346
85500, -64.970609
86000, -64.970868
86500, -64.971124
87000, -64.971376
87500, -64.971624
88000, -64.971869
88500, -64.972109
89000, -64.972346
89500, -64.972579
90000, -64.972807
90500, -64.973032
91000, -64.973253
91500, -64.973469
92000, -64.973682
92500, -64.973890
93000, -64.974095
93500, -64.974295
94000, -64.974491
94500, -64.974683
95000, -64.974871
95500, -64.975054
96000, -64.975234
96500, -64.975409
97000, -64.975580
97500, -64.975747
98000, -64.975909
98500, -64.976068
99000, -64.976222
99500, -64.976372
100000, -64.976518
100500, -64.976660
101000, -64.976798
101500, -64.976931
102000, -64.977061
102500, -64.977186
103000, -64.977307
103500, -64.977425
104000, -64.977538
104500, -64.977647
105000, -64.977752
105500, -64.977854
106000, -64.977951
106500, -64.978045
107000, -64.978134
107500, -64.978220
108000, -64.978302
108500, -64.978381
109000, -64.978455
109500, -64.978526
110000, -64.978593
110500, -64.978657
111000, -64.978717
111500, -64.978774
112000, -64.978827
112500, -64.978877
113000, -64.978923
113500, -64.978966
114000, -64.979005
114500, -64.979042
115000, -64.979075
115500, -64.979105
116000, -64.979132
116500, -64.979155
117000, -64.979176
117500, -64.979194
118000, -64.979209
118500, -64.979220
119000, -64.979230
119500, -64.979236
120000, -64.979239
120500, -64.979240
121000, -64.979239
121500, -64.979234
122000, -64.979227
122500, -64.979218
123000, -64.979206
123500, -64.979192
124000, -64.979176
124500, -64.979157
125000, -64.979136
125500, -64.979113
126000, -64.979088
126500, -64.979060
127000, -64.979031
127500, -64.979000
128000, -64.978967
128500, -64.978932
129000, -64.978895
129500, -64.978856
130000, -64.978816
130500, -64.978774
131000, -64.978731
131500, -64.978686
132000, -64.978639
132500, -64.978591
133000, -64.978542
133500, -64.978491
134000, -64.978439
134500, -64.978386
135000, -64.978331
135500, -64.978276
136000, -64.978219
136500, -64.978161
137000, -64.978103
137500, -64.978043
138000, -64.977982
138500, -64.977921
139000, -64.977859
139500, -64.977795
140000, -64.977732
140500, -64.977667
141000, -64.977602
141500, -64.977536
142000, -64.977470
142500, -64.977403
143000, -64.977336
143500, -64.977268
144000, -64.977200
144500, -64.977132
145000, -64.977063
145500, -64.976994
146000, -64.976924
146500, -64.976855
147000, -64.976785
147500, -64.976715
148000, -64.976645
148500, -64.976575
149000, -64.976505
149500, -64.976435
150000, -64.976365
150500, -64.976295
151000, -64.976226
151500, -64.976156
152000, -64.976086
152500, -64.976017
153000, -64.975948
153500, -64.975879
154000, -64.975810
154500, -64.975742
155000, -64.975674
155500, -64.975606
156000, -64.975539
156500, -64.975472
157000, -64.975406
157500, -64.975340
158000, -64.975274
158500, -64.975209
159000, -64.975145
159500, -64.975081
160000, -64.975017
160500, -64.974955
161000, -64.974892
161500, -64.974831
162000, -64.974770
162500, -64.974709
163000, -64.974649
163500, -64.974590
164000, -64.974532
164500, -64.974474
165000, -64.974417
165500, -64.974361
166000, -64.974306
166500, -64.974251
167000, -64.974197
167500, -64.974144
168000, -64.974091
168500, -64.974040
169000, -64.973989
169500, -64.973939
170000, -64.973890
170500, -64.973841
171000, -64.973794
171500, -64.973747
172000, -64.973701
172500, -64.973656
173000, -64.973612
173500, -64.973569
174000, -64.973526
174500, -64.973485
175000, -64.973444
175500, -64.973404
176000, -64.973365
176500, -64.973327
177000, -64.973290
177500, -64.973254
178000, -64.973218
178500, -64.973184
179000, -64.973150
179500, -64.973117
180000, -64.973085
180500, -64.973054
181000, -64.973024
181500, -64.972994
182000, -64.972966
182500, -64.972938
183000, -64.972912
183500, -64.972886
184000, -64.972861
184500, -64.972836
185000, -64.972813
185500, -64.972791
186000, -64.972769
186500, -64.972748
187000, -64.972728
187500, -64.972709
188000, -64.972690
188500, -64.972673
189000, -64.972656
189500, -64.972640
190000, -64.972624
190500, -64.972610
191000, -64.972596
191500, -64.972583
192000, -64.972571
192500, -64.972559
193000, -64.972549
193500, -64.972539
194000, -64.972529
194500, -64.972521
195000, -64.972513
195500, -64.972505
196000, -64.972499
196500, -64.972493
197000, -64.972488
197500, -64.972483
198000, -64.972479
198500, -64.972476
199000, -64.972473
199500, -64.972471
200000, -64.972469
200500, -64.972468
201000, -64.972468
201500, -64.972468
202000, -64.972469
202500, -64.972470
203000, -64.972472
203500, -64.972474
204000, -64.972477
204500, -64.972480
205000, -64.972484
205500, -64.972488
206000, -64.972493
206500, -64.972498
207000, -64.972503
207500, -64.972509
208000, -64.972516
208500, -64.972523
209000, -64.972530
209500, -64.972538
210000, -64.972546
210500, -64.972554
211000, -64.972563
211500, -64.972572
212000, -64.972581
212500, -64.972591
213000, -64.972601
213500, -64.972611
214000, -64.972622
214500, -64.972633
215000, -64.972644
215500, -64.972655
216000, -64.972667
216500, -64.972679
217000, -64.972691
217500, -64.972704
218000, -64.972716
218500, -64.972729
219000, -64.972742
219500, -64.972755
220000, -64.972768
220500, -64.972782
221000, -64.972796
221500, -64.972809
222000, -64.972823
222500, -64.972837
223000, -64.972852
223500, -64.972866
224000, -64.972880
224500, -64.972895
225000, -64.972909
225500, -64.972924
226000, -64.972938
226500, -64.972953
227000, -64.972968
227500, -64.972983
228000, -64.972998
228500, -64.973012
229000, -64.973027
229500, -64.973042
230000, -64.973057
230500, -64.973072
231000, -64.973087
231500, -64.973102
232000, -64.973117
232500, -64.973131
233000, -64.973146
233500, -64.973161
234000, -64.973176
234500, -64.973190
235000, -64.973205
235500, -64.973220
236000, -64.973234
236500, -64.973248
237000, -64.973263
237500, -64.973277
238000, -64.973291
238500, -64.973305
239000, -64.973319
239500, -64.973333
240000, -64.973346
240500, -64.973360
241000, -64.973374
241500, -64.973387
242000, -64.973400
242500, -64.973413
243000, -64.973426
243500, -64.973439
244000, -64.973452
244500, -64.973464
245000, -64.973477
245500, -64.973489
246000, -64.973501
246500, -64.973513
247000, -64.973525
247500, -64.973536
248000, -64.973548
248500, -64.973559
249000, -64.973570
249500, -64.973581
250000, -64.973592
250500, -64.973603
251000, -64.973613
251500, -64.973623
252000, -64.973634
252500, -64.973643
253000, -64.973653
253500, -64.973663
254000, -64.973672
254500, -64.973681
255000, -64.973690
255500, -64.973699
256000, -64.973708
256500, -64.973716
257000, -64.973725
257500, -64.973733
258000, -64.973741
258500, -64.973748
259000, -64.973756
259500, -64.973763
260000, -64.973771
260500, -64.973778
261000, -64.973784
261500, -64.973791
262000, -64.973797
262500, -64.973804
263000, -64.973810
263500, -64.973816
264000, -64.973821
264500, -64.973827
265000, -64.973832
265500, -64.973837
266000, -64.973842
266500, -64.973847
267000, -64.973852
267500, -64.973856
268000, -64.973861
268500, -64.973865
269000, -64.973869
269500, -64.973872
270000, -64.973876
270500, -64.973880
271000, -64.973883
271500, -64.973886
272000, -64.973889
272500, -64.973892
273000, -64.973894
273500, -64.973897
274000, -64.973899
274500, -64.973901
275000, -64.973903
275500, -64.973905
276000, -64.973907
276500, -64.973909
277000, -64.973910
277500, -64.973911
278000, -64.973913
278500, -64.973914
279000, -64.973915
279500, -64.973915
280000, -64.973916
280500, -64.973917
281000, -64.973917
281500, -64.973917
282000, -64.973917
282500, -64.973917
283000, -64.973917
283500, -64.973917
284000, -64.973917
284500, -64.973917
285000, -64.973916
285500, -64.973915
286000, -64.973915
286500, -64.973914
287000, -64.973913
287500, -64.973912
288000, -64.973911
288500, -64.973910
289000, -64.973908
289500, -64.973907
290000, -64.973905
290500, -64.973904
291000, -64.973902
291500, -64.973901
292000, -64.973899
292500, -64.973897
293000, -64.973895
293500, -64.973893
294000, -64.973891
294500, -64.973889
295000, -64.973887
295500, -64.973885
296000, -64.973882
296500, -64.973880
297000, -64.973878
297500, -64.973875
298000, -64.973873
298500, -64.973870
299000, -64.973868
299500, -64.973865
300000, -64.973862
300500, -64.973860
301000, -64.973857
301500, -64.973854
302000, -64.973851
302500, -64.973848
303000, -64.973846
303500, -64.973843
304000, -64.973840
304500, -64.973837
305000, -64.973834
305500, -64.973831
306000, -64.973828
306500, -64.973825
307000, -64.973822
307500, -64.973819
308000, -64.973816
308500, -64.973813
309000, -64.973810
309500, -64.973807
310000, -64.973804
310500, -64.973801
311000, -64.973797
311500, -64.973794
312000, -64.973791
312500, -64.973788
313000, -64.973785
313500, -64.973782
314000, -64.973779
314500, -64.973776
315000, -64.973773
315500, -64.973770
316000, -64.973767
316500, -64.973764
317000, -64.973761
317500, -64.973758
318000, -64.973755
318500, -64.973752
319000, -64.973749
319500, -64.973746
320000, -64.973744
320500, -64.973741
321000, -64.973738
321500, -64.973735
322000, -64.973732
322500, -64.973730
323000, -64.973727
323500, -64.973724
324000, -64.973722
324500, -64.973719
325000, -64.973716
325500, -64.973714
326000, -64.973711
326500, -64.973709
327000, -64.973706
327500, -64.973704
328000, -64.973701
328500, -64.973699
329000, -64.973697
329500, -64.973694
330000, -64.973692
330500, -64.973690
331000, -64.973687
331500, -64.973685
332000, -64.973683
332500, -64.973681
333000, -64.973679
333500, -64.973677
334000, -64.973675
334500, -64.973673
335000, -64.973671
335500, -64.973669
336000, -64.973667
336500, -64.973666
337000, -64.973664
337500, -64.973662
338000, -64.973660
338500, -64.973659
339000, -64.973657
339500, -64.973656
340000, -64.973654
340500, -64.973653
341000, -64.973651
341500, -64.973650
342000, -64.973648
342500, -64.973647
343000, -64.973646
343500, -64.973644
344000, -64.973643
344500, -64.973642
345000, -64.973641
345500, -64.973640
346000, -64.973639
346500, -64.973638
347000, -64.973637
347500, -64.973636
348000, -64.973635
348500, -64.973634
349000, -64.973633
349500, -64.973632
350000, -64.973631
350500, -64.973631
351000, -64.973630
351500, -64.973629
352000, -64.973629
352500, -64.973628
353000, -64.973627
353500, -64.973627
354000, -64.973626
354500, -64.973626
355000, -64.973625
355500, -64.973625
356000, -64.973625
356500, -64.973624
357000, -64.973624
357500, -64.973624
358000, -64.973623
358500, -64.973623
359000, -64.973623
359500, -64.973623
360000, -64.973623
360500, -64.973622
361000, -64.973622
361500, -64.973622
362000, -64.973622
362500, -64.973622
363000, -64.973622
363500, -64.973622
364000, -64.973622
364500, -64.973622
365000, -64.973622
365500, -64.973623
366000, -64.973623
366500, -64.973623
367000, -64.973623
367500, -64.973623
368000, -64.973624
368500, -64.973624
369000, -64.973624
369500, -64.973624
370000, -64.973625
370500, -64.973625
371000, -64.973625
371500, -64.973626
372000, -64.973626
372500, -64.973626
373000, -64.973627
373500, -64.973627
374000, -64.973628
374500, -64.973628
375000, -64.973629
375500, -64.973629
376000, -64.973630
376500, -64.973630
377000, -64.973631
377500, -64.973631
378000, -64.973632
378500, -64.973632
379000, -64.973633
379500, -64.973633
380000, -64.973634
380500, -64.973634
381000, -64.973635
381500, -64.973636
382000, -64.973636
382500, -64.973637
383000, -64.973637
383500, -64.973638
384000, -64.973639
384500, -64.973639
385000, -64.973640
385500, -64.973641
386000, -64.973641
386500, -64.973642
387000, -64.973643
387500, -64.973643
388000, -64.973644
388500, -64.973645
389000, -64.973645
389500, -64.973646
390000, -64.973647
390500, -64.973647
391000, -64.973648
391500, -64.973649
392000, -64.973649
392500, -64.973650
393000, -64.973651
393500, -64.973651
394000, -64.973652
394500, -64.973653
395000, -64.973653
395500, -64.973654
396000, -64.973655
396500, -64.973655
397000, -64.973656
397500, -64.973657
398000, -64.973657
398500, -64.973658
399000, -64.973659
399500, -64.973659
400000, -64.973660
400500, -64.973660
401000, -64.973661
401500, -64.973662
402000, -64.973662
402500, -64.973663
403000, -64.973663
403500, -64.973664
404000, -64.973665
404500, -64.973665
405000, -64.973666
405500, -64.973666
406000, -64.973667
406500, -64.973668
407000, -64.973668
407500, -64.973669
408000, -64.973669
408500, -64.973670
409000, -64.973670
409500, -64.973671
410000, -64.973671
410500, -64.973672
411000, -64.973672
411500, -64.973673
412000, -64.973673
412500, -64.973674
413000, -64.973674
413500, -64.973675
414000, -64.973675
414500, -64.973676
415000, -64.973676
415500, -64.973676
416000, -64.973677
416500, -64.973677
417000, -64.973678
417500, -64.973678
418000, -64.973678
418500, -64.973679
419000, -64.973679
419500, -64.973680
420000, -64.973680
420500, -64.973680
421000, -64.973681
421500, -64.973681
422000, -64.973681
422500, -64.973682
423000, -64.973682
423500, -64.973682
424000, -64.973682
424500, -64.973683
425000, -64.973683
425500, -64.973683
426000, -64.973684
426500, -64.973684
427000, -64.973684
427500, -64.973684
428000, -64.973685
428500, -64.973685
429000, -64.973685
429500, -64.973685
430000, -64.973685
430500, -64.973686
431000, -64.973686
431500, -64.973686
432000, -64.973686
432500, -64.973686
433000, -64.973686
433500, -64.973686
434000, -64.973687
434500, -64.973687
435000, -64.973687
435500, -64.973687
436000, -64.973687
436500, -64.973687
437000, -64.973687
437500, -64.973687
438000, -64.973687
438500, -64.973688
439000, -64.973688
439500, -64.973688
440000, -64.973688
440500, -64.973688
441000, -64.973688
441500, -64.973688
442000, -64.973688
442500, -64.973688
443000, -64.973688
443500, -64.973688
444000, -64.973688
444500, -64.973688
445000, -64.973688
445500, -64.973688
446000, -64.973688
446500, -64.973688
447000, -64.973688
447500, -64.973688
448000, -64.973688
448500, -64.973688
449000, -64.973688
449500, -64.973688
450000, -64.973688
450500, -64.973688
451000, -64.973688
451500, -64.973688
452000, -64.973687
452500, -64.973687
453000, -64.973687
453500, -64.973687
454000, -64.973687
454500, -64.973687
455000, -64.973687
455500, -64.973687
456000, -64.973687
456500, -64.973687
457000, -64.973687
457500, -64.973687
458000, -64.973687
458500, -64.973686
459000, -64.973686
459500, -64.973686
460000, -64.973686
460500, -64.973686
461000, -64.973686
461500, -64.973686
462000, -64.973686
462500, -64.973686
463000, -64.973685
463500, -64.973685
464000, -64.973685
464500, -64.973685
465000, -64.973685
465500, -64.973685
466000, -64.973685
466500, -64.973685
467000, -64.973684
467500, -64.973684
468000, -64.973684
468500, -64.973684
469000, -64.973684
469500, -64.973684
470000, -64.973684
470500, -64.973684
471000, -64.973683
471500, -64.973683
472000, -64.973683
472500, -64.973683
473000, -64.973683
473500, -64.973683
474000, -64.973683
474500, -64.973682
475000, -64.973682
475500, -64.973682
476000, -64.973682
476500, -64.973682
477000, -64.973682
477500, -64.973682
478000, -64.973682
478500, -64.973681
479000, -64.973681
479500, -64.973681
480000, -64.973681
480500, -64.973681
481000, -64.973681
481500, -64.973681
482000, -64.973681
482500, -64.973680
483000, -64.973680
483500, -64.973680
484000, -64.973680
484500, -64.973680
485000, -64.973680
485500, -64.973680
486000, -64.973680
486500, -64.973680
487000, -64.973679
487500, -64.973679
488000, -64.973679
488500, -64.973679
489000, -64.973679
489500, -64.973679
490000, -64.973679
490500, -64.973679
491000, -64.973679
491500, -64.973678
492000, -64.973678
492500, -64.973678
493000, -64.973678
493500, -64.973678
494000, -64.973678
494500, -64.973678
495000, -64.973678
495500, -64.973678
496000, -64.973678
496500, -64.973678
497000, -64.973677
497500, -64.973677
498000, -64.973677
498500, -64.973677
499000, -64.973677
499500, -64.973677
500000, -64.973677
500500, -62.625213
501000, -60.347342
501500, -58.123777
502000, -55.942981
502500, -53.778840
503000, -51.602533
503500, -49.361136
504000, -46.985706
504500, -44.363422
505000, -41.333359
505500, -37.639427
506000, -32.893429
506500, -26.479053
507000, -17.484383
507500, -4.786248
508000, 11.914251
508500, 29.333956
509000, 40.607211
509500, 43.973297
510000, 43.818806
510500, 42.821675
511000, 41.488004
511500, 39.901885
512000, 38.098462
512500, 36.112779
513000, 33.968707
513500, 31.696034
514000, 29.314893
514500, 26.851455
515000, 24.322020
515500, 21.748777
516000, 19.143892
516500, 16.525362
517000, 13.901258
517500, 11.285669
518000, 8.682955
518500, 6.103800
519000, 3.549587
519500, 1.028143
520000, -1.461407
520500, -3.913460
521000, -6.330592
521500, -8.708733
522000, -11.051931
522500, -13.356889
523000, -15.629374
523500, -17.867302
524000, -20.077118
524500, -22.258637
525000, -24.420888
525500, -26.566007
526000, -28.705586
526500, -30.845356
527000, -33.001147
527500, -35.183418
528000, -37.413604
528500, -39.707094
529000, -42.088521
529500, -44.574764
530000, -47.187530
530500, -49.932226
531000, -52.805467
531500, -55.767709
532000, -58.748390
532500, -61.625642
533000, -64.254987
533500, -66.490920
534000, -68.249509
534500, -69.520965
535000, -70.372960
535500, -70.898180
536000, -71.195542
536500, -71.337305
537000, -71.381666
537500, -71.360873
538000, -71.301900
538500, -71.215306
539000, -71.113910
539500, -70.999356
540000, -70.878936
540500, -70.750899
541000, -70.620450
541500, -70.484566
542000, -70.347657
542500, -70.206210
543000, -70.064328
543500, -69.918309
544000, -69.772126
544500, -69.622003
545000, -69.471860
545500, -69.317896
546000, -69.164011
546500, -69.006393
547000, -68.848934
547500, -68.687817
548000, -68.526926
548500, -68.362451
549000, -68.198276
549500, -68.030597
550000, -67.863300
550500, -67.692580
551000, -67.522313
551500, -67.348707
552000, -67.175642
552500, -66.999332
553000, -66.823661
553500, -66.644835
554000, -66.466730
554500, -66.285566
555000, -66.105222
555500, -65.921930
556000, -65.739562
556500, -65.554338
557000, -65.370127
557500, -65.183164
558000, -64.997322
558500, -64.808847
559000, -64.621586
559500, -64.431769
560000, -64.243257
560500, -64.052296
561000, -63.862753
561500, -63.670854
562000, -63.480435
562500, -63.287733
563000, -63.096597
563500, -62.903281
564000, -62.711613
564500, -62.517807
565000, -62.325684
565500, -62.131484
566000, -61.939043
566500, -61.744594
567000, -61.551912
567500, -61.357210
568000, -61.164290
568500, -60.969395
569000, -60.776327
569500, -60.581252
570000, -60.387922
570500, -60.192548
571000, -59.998911
571500, -59.803251
572000, -59.609240
572500, -59.413040
573000, -59.218375
573500, -59.021452
574000, -58.826025
574500, -58.628192
575000, -58.431593
575500, -58.232378
576000, -58.034238
576500, -57.833366
577000, -57.633322
577500, -57.430160
578000, -57.227479
578500, -57.021401
579000, -56.815573
579500, -56.605939
580000, -56.395960
580500, -56.181647
581000, -55.966531
581500, -55.746635
582000, -55.525220
582500, -55.298125
583000, -55.068705
583500, -54.832875
584000, -54.593754
584500, -54.346924
585000, -54.095473
585500, -53.835060
586000, -53.568491
586500, -53.290959
587000, -53.005136
587500, -52.706259
588000, -52.396333
588500, -52.069931
589000, -51.729042
589500, -51.367485
590000, -50.986265
590500, -50.578814
591000, -50.144753
591500, -49.676084
592000, -49.170995
592500, -48.619385
593000, -48.016877
593500, -47.350352
594000, -46.611081
594500, -45.780324
595000, -44.842989
595500, -43.771505
596000, -42.539045
596500, -41.102889
597000, -39.417076
597500, -37.414206
598000, -35.017920
598500, -32.126363
599000, -28.629415
599500, -24.406211
600000, -19.370917
600500, -13.521123
601000, -7.050144
601500, -0.422830
602000, 5.635080
602500, 10.395171
603000, 13.440696
603500, 14.808068
604000, 14.817343
604500, 13.858463
605000, 12.248004
605500, 10.217837
606000, 7.918316
606500, 5.456385
607000, 2.898395
607500, 0.296317
608000, -2.320199
608500, -4.924390
609000, -7.504043
609500, -10.045260
610000, -12.544839
610500, -14.995775
611000, -17.399879
611500, -19.754419
612000, -22.064866
612500, -24.331074
613000, -26.562431
613500, -28.762309
614000, -30.943181
614500, -33.112269
615000, -35.286455
615500, -37.477090
616000, -39.704029
616500, -41.980441
617000, -44.326013
617500, -46.749990
618000, -49.262042
618500, -51.852347
619000, -54.499953
619500, -57.151318
620000, -59.733553
620500, -62.144580
621000, -64.286563
621500, -66.076738
622000, -67.484497
622500, -68.521128
623000, -69.241598
623500, -69.708780
624000, -69.990736
624500, -70.137487
625000, -70.193250
625500, -70.183515
626000, -70.132015
626500, -70.048802
627000, -69.946644
627500, -69.828075
628000, -69.700796
628500, -69.563970
629000, -69.423056
629500, -69.275731
630000, -69.126461
630500, -68.972266
631000, -68.817164
631500, -68.657875
632000, -68.498211
632500, -68.334761
633000, -68.171240
633500, -68.004179
634000, -67.837247
634500, -67.666939
635000, -67.496900
635500, -67.323618
636000, -67.150727
636500, -66.974717
637000, -66.799214
637500, -66.620698
638000, -66.442790
638500, -66.261977
639000, -66.081882
639500, -65.899000
640000, -65.716944
640500, -65.532202
641000, -65.348385
641500, -65.161993
642000, -64.976641
642500, -64.788835
643000, -64.602167
643500, -64.413135
644000, -64.225340
644500, -64.035295
645000, -63.846605
645500, -63.655762
646000, -63.466347
646500, -63.274864
647000, -63.084905
647500, -62.892986
648000, -62.702678
648500, -62.510467
649000, -62.319917
649500, -62.127537
650000, -61.936903
650500, -61.744516
651000, -61.553900
651500, -61.361539
652000, -61.170982
652500, -60.978735
653000, -60.788350
653500, -60.596269
654000, -60.405994
654500, -60.214006
655000, -60.023833
655500, -59.831979
656000, -59.641894
656500, -59.450010
657000, -59.259805
657500, -59.067754
658000, -58.877360
658500, -58.685039
659000, -58.494191
659500, -58.301237
660000, -58.109625
660500, -57.915818
661000, -57.723222
661500, -57.528169
662000, -57.334022
662500, -57.137182
663000, -56.941061
663500, -56.742041
664000, -56.543357
664500, -56.341308
665000, -56.139206
665500, -55.933418
666000, -55.727213
666500, -55.516737
667000, -55.305151
667500, -55.088692
668000, -54.870584
668500, -54.646917
669000, -54.420628
669500, -54.187756
670000, -53.951319
670500, -53.707329
671000, -53.458405
671500, -53.200279
672000, -52.935652
672500, -52.660173
673000, -52.375990
673500, -52.078362
674000, -51.769469
674500, -51.444013
675000, -51.103405
675500, -50.742100
676000, -50.360727
676500, -49.952628
677000, -49.517775
677500, -49.047957
678000, -48.541592
678500, -47.988493
679000, -47.384668
679500, -46.716785
680000, -45.976655
680500, -45.146600
681000, -44.211817
681500, -43.146204
682000, -41.924826
682500, -40.508476
683000, -38.855290
683500, -36.905589
684000, -34.593512
684500, -31.833292
685000, -28.536574
685500, -24.610779
686000, -19.998956
686500, -14.714002
687000, -8.923470
687500, -2.994387
688000, 2.508438
688500, 6.991678
689000, 10.053911
689500, 11.627561
690000, 11.904314
690500, 11.191633
691000, 9.776484
691500, 7.890697
692000, 5.695428
692500, 3.308638
693000, 0.806218
693500, -1.753492
694000, -4.335837
694500, -6.911141
695000, -9.464749
695500, -11.981586
696000, -14.457262
696500, -16.884609
697000, -19.265126
697500, -21.596220
698000, -23.883797
698500, -26.128576
699000, -28.340367
699500, -30.524224
700000, -32.693691
700500, -34.857465
701000, -37.032843
701500, -39.231892
702000, -41.474344
702500, -43.772390
703000, -46.142406
703500, -48.588323
704000, -51.110481
704500, -53.687093
705000, -56.280942
705500, -58.823634
706000, -61.231909
706500, -63.407005
707000, -65.270385
707500, -66.772297
708000, -67.914846
708500, -68.731797
709000, -69.284519
709500, -69.631463
710000, -69.830582
710500, -69.921779
711000, -69.940426
711500, -69.905913
712000, -69.837350
712500, -69.742165
713000, -69.631026
713500, -69.505554
714000, -69.372473
714500, -69.230744
715000, -69.085297
715500, -68.933891
716000, -68.780635
716500, -68.622735
717000, -68.463922
717500, -68.301150
718000, -68.137972
718500, -67.971223
719000, -67.804370
719500, -67.634186
720000, -67.464090
720500, -67.290838
721000, -67.117828
721500, -66.941806
722000, -66.766157
722500, -66.587616
723000, -66.409558
723500, -66.228726
724000, -66.048495
724500, -65.865611
725000, -65.683439
725500, -65.498717
726000, -65.314810
726500, -65.128468
727000, -64.943060
727500, -64.755335
728000, -64.568642
728500, -64.379727
729000, -64.191947
729500, -64.002061
730000, -63.813431
730500, -63.622788
731000, -63.433472
731500, -63.242232
732000, -63.052419
732500, -62.860795
733000, -62.670679
733500, -62.478806
734000, -62.288498
734500, -62.096510
735000, -61.906176
735500, -61.714233
736000, -61.523966
736500, -61.332106
737000, -61.141960
737500, -60.950281
738000, -60.760368
738500, -60.568911
739000, -60.379174
739500, -60.187884
740000, -59.998328
740500, -59.807257
741000, -59.617866
741500, -59.426838
742000, -59.237414
742500, -59.046314
743000, -58.856803
743500, -58.665529
744000, -58.475659
744500, -58.283861
745000, -58.093348
745500, -57.900830
746000, -57.709463
746500, -57.515830
747000, -57.323063
747500, -57.127812
748000, -56.933252
748500, -56.736007
749000, -56.539082
749500, -56.339030
750000, -56.138933
750500, -55.935406
751000, -55.731492
751500, -55.523595
752000, -55.314650
752500, -55.101149
753000, -54.886093
753500, -54.665854
754000, -54.443151
754500, -54.214289
755000, -53.982070
755500, -53.742827
756000, -53.498975
756500, -53.246528
757000, -52.987988
757500, -52.719399
758000, -52.442731
758500, -52.153553
759000, -51.853885
759500, -51.538963
760000, -51.210071
760500, -50.862036
761000, -50.495720
761500, -50.104901
762000, -49.689676
762500, -49.242710
763000, -48.762551
763500, -48.240353
764000, -47.672499
764500, -47.047456
765000, -46.358555
765500, -45.589842
766000, -44.729105
766500, -43.754013
767000, -42.643740
767500, -41.364847
768000, -39.882599
768500, -38.146441
769000, -36.100666
769500, -33.670773
770000, -30.777244
770500, -27.328499
771000, -23.249323
771500, -18.499487
772000, -13.139740
772500, -7.384772
773000, -1.658374
773500, 3.475067
774000, 7.476958
774500, 10.053054
775000, 11.211979
775500, 11.183120
776000, 10.258457
776500, 8.708138
777000, 6.735084
777500, 4.490521
778000, 2.074756
778500, -0.437055
779000, -2.998262
779500, -5.570845
780000, -8.134335
780500, -10.669203
781000, -13.168144
781500, -15.621388
782000, -18.028882
782500, -20.386287
783000, -22.698480
783500, -24.965342
784000, -27.194873
784500, -29.391393
785000, -31.567201
785500, -33.730133
786000, -35.896223
786500, -38.076889
787000, -40.291122
787500, -42.551828
788000, -44.876631
788500, -47.273074
789000, -49.747207
789500, -52.286447
790000, -54.866034
790500, -57.432015
791000, -59.912139
791500, -62.212192
792000, -64.244339
792500, -65.938528
793000, -67.272104
793500, -68.259072
794000, -68.950578
794500, -69.404097
795000, -69.681360
795500, -69.828454
796000, -69.886280
796500, -69.879193
797000, -69.829639
797500, -69.747839
798000, -69.646022
798500, -69.527278
799000, -69.398941
799500, -69.260782
800000, -69.117892
800500, -68.968531
801000, -68.816763
801500, -68.660151
802000, -68.502284
802500, -68.340409
803000, -68.177889
803500, -68.011824
804000, -67.845470
804500, -67.675847
805000, -67.506156
805500, -67.333387
806000, -67.160717
806500, -66.985123
807000, -66.809769
807500, -66.631618
808000, -66.453818
808500, -66.273341
809000, -66.093334
809500, -65.910774
810000, -65.728798
810500, -65.544374
811000, -65.360637
811500, -65.174566
812000, -64.989300
812500, -64.801823
813000, -64.615252
813500, -64.426562
814000, -64.238881
814500, -64.049194
815000, -63.860636
815500, -63.670174
816000, -63.480916
816500, -63.289841
817000, -63.100067
817500, -62.908586
818000, -62.718499
818500, -62.526765
819000, -62.336478
819500, -62.144617
820000, -61.954289
820500, -61.762472
821000, -61.572220
821500, -61.380488
822000, -61.190355
822500, -60.998799
823000, -60.808910
823500, -60.617602
824000, -60.427906
824500, -60.236775
825000, -60.047267
825500, -59.856359
826000, -59.667044
826500, -59.476227
827000, -59.286916
827500, -59.096056
828000, -58.906682
828500, -58.715701
829000, -58.526046
829500, -58.334606
830000, -58.144362
830500, -57.952248
831000, -57.761234
831500, -57.568123
832000, -57.375810
832500, -57.181166
833000, -56.987139
833500, -56.790629
834000, -56.594407
834500, -56.395243
835000, -56.195986
835500, -55.993473
836000, -55.790594
836500, -55.583965
837000, -55.376287
837500, -55.164273
838000, -54.950693
838500, -54.732244
839000, -54.511408
839500, -54.284706
840000, -54.054713
840500, -53.818019
841000, -53.576917
841500, -53.327638
842000, -53.072461
842500, -52.807680
843000, -52.535212
843500, -52.250848
844000, -51.956399
844500, -51.647577
845000, -51.325459
845500, -50.985135
846000, -50.627595
846500, -50.246900
847000, -49.843009
847500, -49.409340
848000, -48.944352
848500, -48.440115
849000, -47.893025
849500, -47.292721
850000, -46.632723
850500, -45.898644
851000, -45.079619
851500, -44.155197
852000, -43.106456
852500, -41.903139
853000, -40.513915
853500, -38.892621
854000, -36.988815
854500, -34.733949
855000, -32.053323
855500, -28.857468
856000, -25.065007
856500, -20.614138
857000, -15.518557
857500, -9.916835
858000, -4.142519
858500, 1.291751
859000, 5.811500
859500, 9.004204
860000, 10.748982
860500, 11.197722
861000, 10.625952
861500, 9.320875
862000, 7.511914
862500, 5.373328
863000, 3.023137
863500, 0.548595
864000, -1.994858
864500, -4.563398
865000, -7.132046
865500, -9.678444
866000, -12.192837
866500, -14.664058
867000, -17.090529
867500, -19.467235
868000, -21.797839
868500, -24.081578
869000, -26.325663
869500, -28.533789
870000, -30.717094
870500, -32.882797
871000, -35.045963
871500, -37.217729
872000, -39.416624
872500, -41.655684
873000, -43.953052
873500, -46.318352
874000, -48.760890
874500, -51.273948
875000, -53.840493
875500, -56.416410
876000, -58.938605
876500, -61.318387
877000, -63.464859
877500, -65.296453
878000, -66.772900
878500, -67.892196
879000, -68.694935
879500, -69.235539
880000, -69.577462
880500, -69.771114
881000, -69.861639
881500, -69.877448
882000, -69.843736
882500, -69.773095
883000, -69.679051
883500, -69.565948
884000, -69.441614
884500, -69.306517
885000, -69.165856
885500, -69.018329
886000, -68.867932
886500, -68.712551
887000, -68.555627
887500, -68.394671
888000, -68.232865
888500, -68.067547
889000, -67.901773
889500, -67.732795
890000, -67.563602
890500, -67.391408
891000, -67.219175
891500, -67.044101
892000, -66.869134
892500, -66.691458
893000, -66.514006
893500, -66.333964
894000, -66.154263
894500, -65.972095
895000, -65.790389
895500, -65.606323
896000, -65.422820
896500, -65.237068
897000, -65.051995
897500, -64.864797
898000, -64.678385
898500, -64.489944
899000, -64.302387
899500, -64.112911
900000, -63.924437
900500, -63.734156
901000, -63.544959
901500, -63.354037
902000, -63.164291
902500, -62.972926
903000, -62.782844
903500, -62.591213
904000, -62.400910
904500, -62.209127
905000, -62.018753
905500, -61.826995
906000, -61.636694
906500, -61.445015
907000, -61.254820
907500, -61.063297
908000, -60.873323
908500, -60.682049
909000, -60.492288
909500, -60.301200
910000, -60.111626
910500, -59.920752
911000, -59.731393
911500, -59.540656
912000, -59.351331
912500, -59.160569
913000, -58.971189
913500, -58.780351
914000, -58.590766
914500, -58.399525
915000, -58.209392
915500, -58.017507
916000, -57.826663
916500, -57.633881
917000, -57.441835
917500, -57.247598
918000, -57.053899
918500, -56.857859
919000, -56.662089
919500, -56.463556
920000, -56.264888
920500, -56.063122
921000, -55.860938
921500, -55.655241
922000, -55.448506
922500, -55.237641
923000, -55.025197
923500, -54.808146
924000, -54.588789
924500, -54.363838
925000, -54.135648
925500, -53.901011
926000, -53.662159
926500, -53.415510
927000, -53.163125
927500, -52.901504
928000, -52.632546
928500, -52.352239
929000, -52.062184
929500, -51.758405
930000, -51.441936
930500, -51.108080
931000, -50.757681
931500, -50.385342
932000, -49.990852
932500, -49.568292
933000, -49.115997
933500, -48.626518
934000, -48.096576
934500, -47.516527
935000, -46.880285
935500, -46.174759
936000, -45.389651
936500, -44.505964
937000, -43.506418
937500, -42.363148
938000, -41.047425
938500, -39.517103
939000, -37.725333
939500, -35.608461
940000, -33.096005
940500, -30.101340
941000, -26.540294
941500, -22.338495
942000, -17.477150
942500, -12.038694
943000, -6.281610
943500, -0.658028
944000, 4.256965
944500, 7.969745
945000, 10.243692
945500, 11.144310
946000, 10.916108
946500, 9.853748
947000, 8.208745
947500, 6.177002
948000, 3.893779
948500, 1.458237
949000, -1.065415
949500, -3.627699
950000, -6.199197
950500, -8.754860
951000, -11.282491
951500, -13.769665
952000, -16.213263
952500, -18.607749
953000, -20.955554
953500, -23.255306
954000, -25.513780
954500, -27.733822
955000, -29.925527
955500, -32.095557
956000, -34.258360
956500, -36.424794
957000, -38.612497
957500, -40.834541
958000, -43.109322
958500, -45.447964
959000, -47.862270
959500, -50.350202
960000, -52.900847
960500, -55.478856
961000, -58.029673
961500, -60.471442
962000, -62.713328
962500, -64.666163
963000, -66.274613
963500, -67.520842
964000, -68.433457
964500, -69.062081
965000, -69.470372
965500, -69.712235
966000, -69.836782
966500, -69.876436
967000, -69.859219
967500, -69.800163
968000, -69.714174
968500, -69.606889
969000, -69.486680
969500, -69.354720
970000, -69.216348
970500, -69.070692
971000, -68.921706
971500, -68.767581
972000, -68.611631
972500, -68.451617
973000, -68.290555
973500, -68.126006
974000, -67.960842
974500, -67.792529
975000, -67.623865
975500, -67.452266
976000, -67.280500
976500, -67.105965
977000, -66.931413
977500, -66.754232
978000, -66.577154
978500, -66.397564
979000, -66.218195
979500, -66.036436
980000, -65.855019
980500, -65.671325
981000, -65.488075
981500, -65.302656
982000, -65.117793
982500, -64.930884
983000, -64.744647
983500, -64.556462
984000, -64.369044
984500, -64.179786
985000, -63.991407
985500, -63.801311
986000, -63.612185
986500, -63.421415
987000, -63.231705
987500, -63.040453
988000, -62.850372
988500, -62.658832
989000, -62.468511
989500, -62.276793
990000, -62.086371
990500, -61.894645
991000, -61.704280
991500, -61.512634
992000, -61.322365
992500, -61.130857
993000, -60.940786
993500, -60.749527
994000, -60.559690
994500, -60.368624
995000, -60.178970
995500, -59.988107
996000, -59.798687
996500, -59.608005
997000, -59.418646
997500, -59.227953
998000, -59.038544
998500, -58.847792
999000, -58.658230
999500, -58.467139
1000000, -58.277077
1000500, -58.085373
1001000, -57.894621
1001500, -57.702091
1002000, -57.510250
1002500, -57.316354
1003000, -57.122930
1003500, -56.927285
1004000, -56.731905
1004500, -56.533936
1005000, -56.335796
1005500, -56.134709
1006000, -55.933151
1006500, -55.728310
1007000, -55.522447
1007500, -55.312649
1008000, -55.101264
1008500, -54.885447
1009000, -54.667421
1009500, -54.444071
1010000, -54.217544
1010500, -53.984814
1011000, -53.748062
1011500, -53.503879
1012000, -53.254118
1012500, -52.995466
1013000, -52.729818
1013500, -52.453338
1014000, -52.167430
1014500, -51.868318
1015000, -51.557106
1015500, -51.229293
1016000, -50.885548
1016500, -50.521017
1017000, -50.135328
1017500, -49.722829
1018000, -49.282143
1018500, -48.806101
1019000, -48.291875
1019500, -47.730181
1020000, -47.115602
1020500, -46.435885
1021000, -45.681346
1021500, -44.834577
1022000, -43.879747
1022500, -42.791150
1023000, -41.542230
1023500, -40.093857
1024000, -38.403099
1024500, -36.410647
1025000, -34.050276
1025500, -31.238926
1026000, -27.892099
1026500, -23.926808
1027000, -19.300566
1027500, -14.050441
1028000, -8.366741
1028500, -2.632811
1029000, 2.601610
1029500, 6.789872
1030000, 9.587441
1030500, 10.960318
1031000, 11.104250
1031500, 10.310485
1032000, 8.849387
1032500, 6.938947
1033000, 4.732976
1033500, 2.343760
1034000, -0.154818
1034500, -2.707028
1035000, -5.278597
1035500, -7.841495
1036000, -10.380902
1036500, -12.882991
1037000, -15.343030
1037500, -17.754888
1038000, -20.119758
1038500, -22.435972
1039000, -24.709307
1039500, -26.941928
1040000, -29.142977
1040500, -31.319026
1041000, -33.483581
1041500, -35.646809
1042000, -37.825598
1042500, -40.032974
1043000, -42.287420
1043500, -44.601254
1044000, -46.988185
1044500, -49.450047
1045000, -51.981198
1045500, -54.554321
1046000, -57.123281
1046500, -59.613910
1047000, -61.938432
1047500, -64.003171
1048000, -65.739866
1048500, -67.114469
1049000, -68.142084
1049500, -68.865149
1050000, -69.345870
1050500, -69.640952
1051000, -69.803326
1051500, -69.869558
1052000, -69.870750
1052500, -69.824584
1053000, -69.747542
1053500, -69.646674
1054000, -69.531002
1054500, -69.402453
1055000, -69.266565
1055500, -69.122909
1056000, -68.975429
1056500, -68.822624
1057000, -68.667701
1057500, -68.508661
1058000, -68.348374
1058500, -68.184611
1059000, -68.020080
1059500, -67.852444
1060000, -67.684324
1060500, -67.513329
1061000, -67.342044
1061500, -67.168057
1062000, -66.993934
1062500, -66.817253
1063000, -66.640562
1063500, -66.461431
1064000, -66.282406
1064500, -66.101061
1065000, -65.919945
1065500, -65.736627
1066000, -65.553641
1066500, -65.368559
1067000, -65.183920
1067500, -64.997304
1068000, -64.811253
1068500, -64.623331
1069000, -64.436062
1069500, -64.247025
1070000, -64.058754
1070500, -63.868836
1071000, -63.679786
1071500, -63.489168
1072000, -63.299500
1072500, -63.108364
1073000, -62.918285
1073500, -62.726835
1074000, -62.536503
1074500, -62.344852
1075000, -62.154390
1075500, -61.962697
1076000, -61.772277
1076500, -61.580664
1077000, -61.390330
1077500, -61.198837
1078000, -61.008677
1078500, -60.817429
1079000, -60.627517
1079500, -60.436469
1080000, -60.246739
1080500, -60.055883
1081000, -59.866375
1081500, -59.675721
1082000, -59.486314
1082500, -59.295673
1083000, -59.106228
1083500, -58.915530
1084000, -58.725976
1084500, -58.535014
1085000, -58.345013
1085500, -58.153476
1086000, -57.962810
1086500, -57.770521
1087000, -57.578880
1087500, -57.385314
1088000, -57.192159
1088500, -56.996897
1089000, -56.801901
1089500, -56.604480
1090000, -56.406860
1090500, -56.206434
1091000, -56.005491
1091500, -55.801478
1092000, -55.596464
1092500, -55.387703
1093000, -55.177351
1093500, -54.962737
1094000, -54.746013
1094500, -54.524224
1095000, -54.299324
1095500, -54.068456
1096000, -53.833638
1096500, -53.591766
1097000, -53.344493
1097500, -53.088675
1098000, -52.826030
1098500, -52.553094
1099000, -52.271075
1099500, -51.976372
1100000, -51.670160
1100500, -51.348113
1101000, -51.010732
1101500, -50.653651
1102000, -50.276375
1102500, -49.873482
1103000, -49.443891
1103500, -48.980697
1104000, -48.481500
1104500, -47.937358
1105000, -47.343490
1105500, -46.688117
1106000, -45.962511
1106500, -45.150745
1107000, -44.237942
1107500, -43.200281
1108000, -42.013448
1108500, -40.641628
1109000, -39.044865
1109500, -37.168436
1110000, -34.950313
1110500, -32.311600
1111000, -29.169063
1111500, -25.435135
1112000, -21.050214
1112500, -16.013245
1113000, -10.453436
1113500, -4.681258
1114000, 0.800535
1114500, 5.421222
1115000, 8.741064
1115500, 10.615840
1116000, 11.172156
1116500, 10.684151
1117000, 9.435930
1117500, 7.667619
1118000, 5.553412
1118500, 3.220684
1119000, 0.754229
1119500, -1.783031
1120000, -4.351350
1120500, -6.919250
1121000, -9.469012
1121500, -11.985153
1122000, -14.461225
1122500, -16.890350
1123000, -19.272473
1123500, -21.605659
1124000, -23.894505
1124500, -26.140553
1125000, -28.352467
1125500, -30.536181
1126000, -32.704094
1126500, -34.865818
1127000, -37.037501
1127500, -39.232092
1128000, -41.468107
1128500, -43.758556
1129000, -46.118601
1129500, -48.553097
1130000, -51.061380
1130500, -53.623163
1131000, -56.200934
1131500, -58.728973
1132000, -61.124672
1132500, -63.292457
1133000, -65.153630
1133500, -66.659166
1134000, -67.808548
1134500, -68.634655
1135000, -69.196193
1135500, -69.551564
1136000, -69.757210
1136500, -69.853983
1137000, -69.876384
1137500, -69.845040
1138000, -69.778274
1138500, -69.684726
1139000, -69.574215
1139500, -69.449501
1140000, -69.316393
1140500, -69.174941
1141000, -69.029117
1141500, -68.877731
1142000, -68.723913
1142500, -68.565902
1143000, -68.406436
1143500, -68.243492
1144000, -68.079623
1144500, -67.912682
1145000, -67.745129
1145500, -67.574752
1146000, -67.403967
1146500, -67.230537
1147000, -67.056860
1147500, -66.880686
1148000, -66.704397
1148500, -66.525731
1149000, -66.347065
1149500, -66.166143
1150000, -65.985342
1150500, -65.802408
1151000, -65.619701
1151500, -65.434963
1152000, -65.250562
1152500, -65.064246
1153000, -64.878388
1153500, -64.690729
1154000, -64.503620
1154500, -64.314810
1155000, -64.126659
1155500, -63.936924
1156000, -63.747959
1156500, -63.557499
1157000, -63.367886
1157500, -63.176871
1158000, -62.986807
1158500, -62.795452
1159000, -62.605118
1159500, -62.413539
1160000, -62.223046
1160500, -62.031391
1161000, -61.840915
1161500, -61.649331
1162000, -61.458935
1162500, -61.267456
1163000, -61.077211
1163500, -60.885950
1164000, -60.695954
1164500, -60.504912
1165000, -60.315103
1165500, -60.124249
1166000, -59.934651
1166500, -59.744018
1167000, -59.554566
1167500, -59.363973
1168000, -59.174498
1168500, -58.983854
1169000, -58.794312
1169500, -58.603479
1170000, -58.413544
1170500, -58.222173
1171000, -58.031598
1171500, -57.839522
1172000, -57.648064
1172500, -57.454810
1173000, -57.261915
1173500, -57.067024
1174000, -56.872337
1174500, -56.675401
1175000, -56.478256
1175500, -56.278452
1176000, -56.078097
1176500, -55.874801
1177000, -55.670553
1177500, -55.462758
1178000, -55.253386
1178500, -55.039925
1179000, -54.824404
1179500, -54.604089
1180000, -54.380744
1180500, -54.151670
1181000, -53.918705
1181500, -53.679063
1182000, -53.434207
1182500, -53.181147
1183000, -52.921426
1183500, -52.651943
1184000, -52.373721
1184500, -52.083323
1185000, -51.781812
1185500, -51.465242
1186000, -51.133952
1186500, -50.783759
1187000, -50.414368
1187500, -50.020552
1188000, -49.601450
1188500, -49.150459
1189000, -48.665169
1189500, -48.137426
1190000, -47.562638
1190500, -46.929896
1191000, -46.231332
1191500, -45.451739
1192000, -44.577437
1192500, -43.586507
1193000, -42.456523
1193500, -41.154283
1194000, -39.643259
1194500, -37.872556
1195000, -35.784468
1195500, -33.304444
1196000, -30.351606
1196500, -26.836677
1197000, -22.687741
1197500, -17.875698
1198000, -12.477009
1198500, -6.731126
1199000, -1.079881
1199500, 3.910287
1200000, 7.726880
1200500, 10.113994
1201000, 11.112358
1201500, 10.962288
1202000, 9.953753
1202500, 8.347509
1203000, 6.339147
1203500, 4.072726
1204000, 1.645256
1204500, -0.872222
1205000, -3.433880
1205500, -6.004371
1206000, -8.562814
1206500, -11.091850
1207000, -13.583376
1207500, -16.029347
1208000, -18.428606
1208500, -20.778800
1209000, -23.083420
1209500, -25.343648
1210000, -27.567453
1210500, -29.759940
1211000, -31.932550
1211500, -34.094360
1212000, -36.261014
1212500, -38.445316
1213000, -40.665255
1213500, -42.934354
1214000, -45.268852
1214500, -47.676116
1215000, -50.159666
1215500, -52.705313
1216000, -55.283762
1216500, -57.837936
1217000, -60.291988
1217500, -62.551058
1218000, -64.529345
1218500, -66.163853
1219000, -67.438293
1219500, -68.373557
1220000, -69.022797
1220500, -69.444668
1221000, -69.698557
1221500, -69.829560
1222000, -69.875804
1222500, -69.861105
1223000, -69.805868
1223500, -69.720485
1224000, -69.615711
1224500, -69.495218
1225000, -69.365159
1225500, -69.226089
1226000, -69.082047
1226500, -68.932165
1227000, -68.779515
1227500, -68.622572
1228000, -68.463961
1228500, -68.301855
1229000, -68.138670
1229500, -67.972434
1230000, -67.805462
1230500, -67.635708
1231000, -67.465434
1231500, -67.292566
1232000, -67.119343
1232500, -66.943680
1233000, -66.767800
1233500, -66.589603
1234000, -66.411304
1234500, -66.230809
1235000, -66.050331
1235500, -65.867780
1236000, -65.685358
1236500, -65.500967
1237000, -65.316811
1237500, -65.130800
1238000, -64.945144
1238500, -64.757752
1239000, -64.570813
1239500, -64.382233
1240000, -64.194211
1240500, -64.004664
1241000, -63.815795
1241500, -63.625496
1242000, -63.435947
1242500, -63.245056
1243000, -63.055017
1243500, -62.863747
1244000, -62.673413
1244500, -62.481903
1245000, -62.291385
1245500, -62.099769
1246000, -61.909235
1246500, -61.717674
1247000, -61.527219
1247500, -61.335753
1248000, -61.145431
1248500, -60.954159
1249000, -60.764086
1249500, -60.573052
1250000, -60.383172
1250500, -60.192322
1251000, -60.002642
1251500, -59.812030
1252000, -59.622537
1252500, -59.431993
1253000, -59.242491
1253500, -59.051899
1254000, -58.862337
1254500, -58.671602
1255000, -58.481716
1255500, -58.290492
1256000, -58.099999
1256500, -57.908091
1257000, -57.716787
1257500, -57.523815
1258000, -57.331163
1258500, -57.136623
1259000, -56.942232
1259500, -56.745762
1260000, -56.549080
1260500, -56.349879
1261000, -56.150102
1261500, -55.947504
1262000, -55.744009
1262500, -55.537157
1263000, -55.328748
1263500, -55.116413
1264000, -54.902018
1264500, -54.683100
1265000, -54.461245
1265500, -54.233895
1266000, -54.002724
1266500, -53.765234
1267000, -53.522718
1267500, -53.272330
1268000, -53.015449
1268500, -52.749285
1269000, -52.474727
1269500, -52.188488
1270000, -51.891476
1270500, -51.580165
1271000, -51.254737
1271500, -50.911183
1272000, -50.549397
1272500, -50.164337
1273000, -49.755038
1273500, -49.315550
1274000, -48.843394
1274500, -48.331202
1275000, -47.774391
1275500, -47.163056
1276000, -46.489664
1276500, -45.740116
1277000, -44.901940
1277500, -43.954976
1278000, -42.878565
1278500, -41.641982
1279000, -40.211321
1279500, -38.539681
1280000, -36.573373
1280500, -34.242475
1281000, -31.469401
1281500, -28.165201
1282000, -24.250229
1282500, -19.673457
1283000, -14.467730
1283500, -8.805746
1284000, -3.059273
1284500, 2.234729
1285000, 6.516964
1285500, 9.425998
1286000, 10.900961
1286500, 11.129344
1287000, 10.395499
1287500, 8.977761
1288000, 7.094270
1288500, 4.907457
1289000, 2.528117
1289500, 0.036792
1290000, -2.513814
1290500, -5.083891
1291000, -7.649120
1291500, -10.189779
1292000, -12.695999
1292500, -15.158436
1293000, -17.574998
1293500, -19.942420
1294000, -22.263222
1294500, -24.538527
1295000, -26.775109
1295500, -28.977405
1296000, -31.155955
1296500, -33.319761
1297000, -35.483561
1297500, -37.659578
1298000, -39.865337
1298500, -42.114701
1299000, -44.424674
1299500, -46.804775
1300000, -49.261967
1300500, -51.787450
1301000, -54.359546
1301500, -56.929877
1302000, -59.430525
1302500, -61.769859
1303000, -63.857996
1303500, -65.619950
1304000, -67.023009
1304500, -68.074661
1305000, -68.819907
1305500, -69.315851
1306000, -69.624176
1306500, -69.794085
1307000, -69.867541
1307500, -69.871840
1308000, -69.829757
1308500, -69.753643
1309000, -69.655364
1309500, -69.539604
1310000, -69.412949
1310500, -69.276500
1311000, -69.134412
1311500, -68.986148
1312000, -68.834754
1312500, -68.678936
1313000, -68.521228
1313500, -68.359990
1314000, -68.197516
1314500, -68.032003
1315000, -67.865629
1315500, -67.696510
1316000, -67.526760
1316500, -67.354462
1317000, -67.181707
1317500, -67.006561
1318000, -66.831101
1318500, -66.653379
1319000, -66.475459
1319500, -66.295394
1320000, -66.115251
1320500, -65.933087
1321000, -65.750961
1321500, -65.566921
1322000, -65.383022
1322500, -65.197321
1323000, -65.011877
1323500, -64.824757
1324000, -64.637998
1324500, -64.449653
1325000, -64.261772
1325500, -64.072417
1326000, -63.883645
1326500, -63.693504
1327000, -63.504025
1327500, -63.313262
1328000, -63.123257
1328500, -62.932075
1329000, -62.741749
1329500, -62.550311
1330000, -62.359779
1330500, -62.168206
1331000, -61.977624
1331500, -61.786091
1332000, -61.595587
1332500, -61.404139
1333000, -61.213750
1333500, -61.022471
1334000, -60.832321
1334500, -60.641291
1335000, -60.451344
1335500, -60.260497
1336000, -60.070740
1336500, -59.880115
1337000, -59.690562
1337500, -59.500048
1338000, -59.310513
1338500, -59.119966
1339000, -58.930374
1339500, -58.739727
1340000, -58.549886
1340500, -58.358805
1341000, -58.168396
1341500, -57.976656
1342000, -57.785510
1342500, -57.592819
1343000, -57.400414
1343500, -57.206224
1344000, -57.012133
1344500, -56.816114
1345000, -56.619887
1345500, -56.421279
1346000, -56.222074
1346500, -56.020167
1347000, -55.817393
1347500, -55.611452
1348000, -55.403982
1348500, -55.192749
1349000, -54.979464
1349500, -54.761919
1350000, -54.541536
1350500, -54.315886
1351000, -54.086486
1351500, -53.850979
1352000, -53.610664
1352500, -53.362821
1353000, -53.108670
1353500, -52.845561
1354000, -52.574437
1354500, -52.292139
1355000, -51.999427
1355500, -51.693168
1356000, -51.373391
1356500, -51.036245
1357000, -50.681722
1357500, -50.305057
1358000, -49.905182
1358500, -49.476765
1359000, -49.017263
1359500, -48.520004
1360000, -47.980477
1360500, -47.389723
1361000, -46.740358
1361500, -46.019546
1362000, -45.215902
1362500, -44.310417
1363000, -43.283986
1363500, -42.108415
1364000, -40.752745
1364500, -39.173544
1365000, -37.321126
1365500, -35.130115
1366000, -32.526811
1366500, -29.424140
1367000, -25.738322
1367500, -21.402255
1368000, -16.413096
1368500, -10.883943
1369000, -5.113138
1369500, 0.412203
1370000, 5.115119
1370500, 8.543282
1371000, 10.524190
1371500, 11.172129
1372000, 10.751366
1372500, 9.552260
1373000, 7.815186
1373500, 5.723064
1374000, 3.402344
1374500, 0.944486
1375000, -1.590069
1375500, -4.156285
1376000, -6.725977
1376500, -9.276766
1377000, -11.796781
1377500, -14.275239
1378000, -16.708983
1378500, -19.093799
1379000, -21.431471
1379500, -23.722526
1380000, -25.972718
1380500, -28.185857
1381000, -30.372194
1381500, -32.539851
1382000, -34.702581
1382500, -36.872134
1383000, -39.065533
1383500, -41.296883
1384000, -43.583690
1384500, -45.937132
1385000, -48.366977
1385500, -50.869159
1386000, -53.428917
1386500, -56.006369
1387000, -58.542219
1387500, -60.950245
1388000, -63.139467
1388500, -65.025119
1389000, -66.559238
1389500, -67.733655
1390000, -68.583232
1390500, -69.161539
1391000, -69.531367
1391500, -69.745646
1392000, -69.850315
1392500, -69.876433
1393000, -69.849461
1393500, -69.783954
1394000, -69.693087
1394500, -69.582681
1395000, -69.459862
1395500, -69.326326
1396000, -69.186402
1396500, -69.039897
1397000, -68.889863
1397500, -68.735243
1398000, -68.578495
1398500, -68.418165
1399000, -68.256437
1399500, -68.091670
1400000, -67.925918
1400500, -67.757447
1401000, -67.588240
1401500, -67.416523
1402000, -67.244251
1402500, -67.069631
1403000, -66.894603
1403500, -66.717362
1404000, -66.539832
1404500, -66.360207
1405000, -66.180411
1405500, -65.998642
1406000, -65.816825
1406500, -65.633144
1407000, -65.449514
1407500, -65.264130
1408000, -65.078912
1408500, -64.892063
1409000, -64.705493
1409500, -64.517387
1410000, -64.329657
1410500, -64.140501
1411000, -63.951836
1411500, -63.761861
1412000, -63.572464
1412500, -63.381834
1413000, -63.191874
1413500, -63.000786
1414000, -62.810479
1414500, -62.619118
1415000, -62.428581
1415500, -62.237057
1416000, -62.046436
1416500, -61.854922
1417000, -61.664367
1417500, -61.472933
1418000, -61.282480
1418500, -61.091195
1419000, -60.900954
1419500, -60.709917
1420000, -60.519900
1420500, -60.329052
1421000, -60.139221
1421500, -59.948583
1422000, -59.758975
1422500, -59.568493
1423000, -59.378932
1423500, -59.188431
1424000, -58.998817
1424500, -58.808259
1425000, -58.618470
1425500, -58.427532
1426000, -58.237213
1426500, -58.045640
1427000, -57.854618
1427500, -57.662177
1428000, -57.470000
1428500, -57.276141
1429000, -57.082340
1429500, -56.886701
1430000, -56.690879
1430500, -56.492818
1431000, -56.294156
1431500, -56.092911
1432000, -55.890776
1432500, -55.685676
1433000, -55.479094
1433500, -55.268916
1434000, -55.056705
1434500, -54.840414
1435000, -54.621407
1435500, -54.397371
1436000, -54.169673
1436500, -53.936083
1437000, -53.697910
1437500, -53.452546
1438000, -53.201066
1438500, -52.940945
1439000, -52.673185
1439500, -52.394746
1440000, -52.106249
1440500, -51.804698
1441000, -51.490263
1441500, -51.159225
1442000, -50.811460
1442500, -50.442697
1443000, -50.051763
1443500, -49.633760
1444000, -49.186240
1444500, -48.702765
1445000, -48.179361
1445500, -47.607431
1446000, -46.980285
1446500, -46.286225
1447000, -45.514169
1447500, -44.646704
1448000, -43.666295
1448500, -42.546904
1449000, -41.259858
1449500, -39.765201
1450000, -38.016965
1450500, -35.954316
1451000, -33.507607
1451500, -30.592659
1452000, -27.124072
1452500, -23.023914
1453000, -18.261535
1453500, -12.900248
1454000, -7.168201
1454500, -1.489545
1455000, 3.569141
1455500, 7.487655
1456000, 9.983359
1456500, 11.080647
1457000, 11.006126
1457500, 10.053599
1458000, 8.483880
1458500, 6.501204
1459000, 4.249433
1459500, 1.832287
1460000, -0.681155
1460500, -3.239898
1461000, -5.811496
1461500, -8.370611
1462000, -10.903178
1462500, -13.396835
1463000, -15.847268
1463500, -18.249254
1464000, -20.603971
1464500, -22.911064
1465000, -25.175368
1465500, -27.400639
1466000, -29.596028
1466500, -31.768904
1467000, -33.932157
1467500, -36.097063
1468000, -38.280297
1468500, -40.496002
1469000, -42.761736
1469500, -45.089941
1470000, -47.492498
1470500, -49.969576
1471000, -52.512440
1471500, -55.089084
1472000, -57.648690
1472500, -60.112411
1473000, -62.390450
1473500, -64.391585
1474000, -66.054079
1474500, -67.354402
1475000, -68.314532
1475500, -68.982264
1476000, -69.420017
1476500, -69.683820
1477000, -69.823554
1477500, -69.874238
1478000, -69.864291
1478500, -69.810698
1479000, -69.728134
1479500, -69.623683
1480000, -69.505110
1480500, -69.374763
1481000, -69.237192
1481500, -69.092574
1482000, -68.943991
1482500, -68.790627
1483000, -68.634884
1483500, -68.475489
1484000, -68.314532
1484500, -68.150524
1485000, -67.985407
1485500, -67.817591
1486000, -67.648936
1486500, -67.477804
1487000, -67.306021
1487500, -67.131929
1488000, -66.957340
1488500, -66.780581
1489000, -66.603448
1489500, -66.424263
1490000, -66.244822
1490500, -66.063449
1491000, -65.881942
1491500, -65.698619
1492000, -65.515263
1492500, -65.330198
1493000, -65.145213
1493500, -64.958639
1494000, -64.772264
1494500, -64.584403
1495000, -64.396831
1495500, -64.207879
1496000, -64.019331
1496500, -63.829522
1497000, -63.640214
1497500, -63.449721
1498000, -63.259814
1498500, -63.068824
1499000, -62.878529
1499500, -62.687240
1500000, -62.496700
1500500, -62.305224
1501000, -62.114571
1501500, -61.923071
1502000, -61.732471
1502500, -61.541051
1503000, -61.350542
1503500, -61.159253
1504000, -60.968932
1504500, -60.777892
1505000, -60.587813
1505500, -60.396967
1506000, -60.207071
1506500, -60.016423
1507000, -59.826759
1507500, -59.636304
1508000, -59.446716
1508500, -59.256258
1509000, -59.066625
1509500, -58.876108
1510000, -58.686340
1510500, -58.495515
1511000, -58.305269
1511500, -58.113847
1512000, -57.922921
1512500, -57.730705
1513000, -57.538738
1513500, -57.345192
1514000, -57.151672
1514500, -56.956399
1515000, -56.760972
1515500, -56.563444
1516000, -56.365314
1516500, -56.164716
1517000, -55.963208
1517500, -55.758930
1518000, -55.553217
1518500, -55.344069
1519000, -55.132911
1519500, -54.917812
1520000, -54.700127
1520500, -54.477645
1521000, -54.251596
1521500, -54.019861
1522000, -53.783730
1522500, -53.540742
1523000, -53.291831
1523500, -53.034591
1524000, -52.770011
1524500, -52.495244
1525000, -52.210775
1525500, -51.913738
1526000, -51.604434
1526500, -51.279268
1527000, -50.938006
1527500, -50.576845
1528000, -50.194514
1528500, -49.786294
1529000, -49.350099
1529500, -48.879706
1530000, -48.371637
1530500, -47.817584
1531000, -47.211570
1531500, -46.542371
1532000, -45.799880
1532500, -44.968149
1533000, -44.031094
1533500, -42.964619
1534000, -41.742310
1534500, -40.327083
1535000, -38.676456
1535500, -36.733954
1536000, -34.434337
1536500, -31.697113
1537000, -28.437260
1537500, -24.570483
1538000, -20.045545
1538500, -14.882758
1539000, -9.245573
1539500, -3.487292
1540000, 1.860350
1540500, 6.236417
1541000, 9.254853
1541500, 10.835427
1542000, 11.148063
1542500, 10.477950
1543000, 9.102832
1543500, 7.249278
1544000, 5.080194
1544500, 2.713262
1545000, 0.227487
1545500, -2.319285
1546000, -4.889737
1546500, -7.455161
1547000, -9.999001
1547500, -12.507128
1548000, -14.973910
1548500, -17.393057
1549000, -19.765035
1549500, -22.088620
1550000, -24.367989
1550500, -26.606415
1551000, -28.811970
1551500, -30.991351
1552000, -33.156609
1552500, -35.318939
1553000, -37.494252
1553500, -39.696333
1554000, -41.942718
1554500, -44.246814
1555000, -46.622194
1555500, -49.072684
1556000, -51.594571
1556500, -54.163524
1557000, -56.737142
1557500, -59.244983
1558000, -61.600697
1558500, -63.709869
1559000, -65.499026
1559500, -66.928599
1560000, -68.006544
1560500, -68.772251
1561000, -69.285812
1561500, -69.605625
1562000, -69.785348
1562500, -69.864149
1563000, -69.873722
1563500, -69.833757
1564000, -69.760674
1564500, -69.662977
1565000, -69.549199
1565500, -69.422414
1566000, -69.287458
1566500, -69.144906
1567000, -68.997904
1567500, -68.845885
1568000, -68.691216
1568500, -68.532803
1569000, -68.372655
1569500, -68.209434
1570000, -68.044977
1570500, -67.877831
1571000, -67.709747
1571500, -67.539210
1572000, -67.367933
1572500, -67.194379
1573000, -67.020241
1573500, -66.843973
1574000, -66.667249
1574500, -66.488512
1575000, -66.309436
1575500, -66.128468
1576000, -65.947283
1576500, -65.764325
1577000, -65.581256
1577500, -65.396516
1578000, -65.211776
1578500, -65.025485
1579000, -64.839315
1579500, -64.651701
1580000, -64.464299
1580500, -64.275556
1581000, -64.087135
1581500, -63.897492
1582000, -63.708277
1582500, -63.517923
1583000, -63.328079
1583500, -63.137191
1584000, -62.946919
1584500, -62.755707
1585000, -62.565174
1585500, -62.373751
1586000, -62.183077
1586500, -61.991598
1587000, -61.800960
1587500, -61.609559
1588000, -61.419002
1588500, -61.227714
1589000, -61.037321
1589500, -60.846265
1590000, -60.656120
1590500, -60.465271
1591000, -60.275309
1591500, -60.084651
1592000, -59.894907
1592500, -59.704458
1593000, -59.514835
1593500, -59.324410
1594000, -59.134755
1594500, -58.944276
1595000, -58.754530
1595500, -58.563818
1596000, -58.373648
1596500, -58.182377
1597000, -57.991552
1597500, -57.799560
1598000, -57.607808
1598500, -57.414576
1599000, -57.221339
1599500, -57.026432
1600000, -56.831374
1600500, -56.634355
1601000, -56.436741
1601500, -56.236774
1602000, -56.035884
1602500, -55.832368
1603000, -55.627481
1603500, -55.419323
1604000, -55.209188
1604500, -54.995254
1605000, -54.778866
1605500, -54.557913
1606000, -54.333489
1606500, -54.103584
1607000, -53.869362
1607500, -53.628633
1608000, -53.382191
1608500, -53.127736
1609000, -52.866135
1609500, -52.594855
1610000, -52.314248
1610500, -52.021560
1611000, -51.717172
1611500, -51.397660
1612000, -51.062682
1612500, -50.708726
1613000, -50.334608
1613500, -49.935766
1614000, -49.510460
1614500, -49.052661
1615000, -48.559221
1615500, -48.022276
1616000, -47.436454
1616500, -46.791006
1617000, -46.076808
1617500, -45.279076
1618000, -44.382608
1618500, -43.365177
1619000, -42.202507
1619500, -40.860672
1620000, -39.300544
1620500, -37.469659
1621000, -35.307074
1621500, -32.736494
1622000, -29.674760
1622500, -26.034122
1623000, -21.748030
1623500, -16.804121
1624000, -11.307639
1624500, -5.539135
1625000, 0.023248
1625500, 4.806811
1626000, 8.338746
1626500, 10.426970
1627000, 11.164916
1627500, 10.814041
1628000, 9.662807
1628500, 7.959470
1629000, 5.887922
1629500, 3.581468
1630000, 1.130519
1630500, -1.399311
1631000, -3.965194
1631500, -6.534614
1632000, -9.088205
1632500, -11.610013
1633000, -14.092650
1633500, -16.528963
1634000, -18.918291
1634500, -21.258646
1635000, -23.553808
1635500, -25.806147
1636000, -28.022805
1636500, -30.209922
1637000, -32.379244
1637500, -34.541047
1638000, -36.710404
1638500, -38.900802
1639000, -41.129642
1639500, -43.411071
1640000, -45.760000
1640500, -48.183211
1641000, -50.681228
1641500, -53.236794
1642000, -55.815598
1642500, -58.356183
1643000, -60.777629
1643500, -62.985280
1644000, -64.896646
1644500, -66.456936
1645000, -67.658219
1645500, -68.529499
1646000, -69.126713
1646500, -69.509322
1647000, -69.734335
1647500, -69.845144
1648000, -69.876993
1648500, -69.852564
1649000, -69.790271
1649500, -69.700217
1650000, -69.591843
1650500, -69.469033
1651000, -69.336980
1651500, -69.196689
1652000, -69.051408
1652500, -68.900828
1653000, -68.747305
1653500, -68.589923
1654000, -68.430625
1654500, -68.268217
1655000, -68.104446
1655500, -67.937987
1656000, -67.770490
1656500, -67.600561
1657000, -67.429803
1657500, -67.256795
1658000, -67.083122
1658500, -66.907349
1659000, -66.731044
1659500, -66.552761
1660000, -66.374063
1660500, -66.193506
1661000, -66.012654
1661500, -65.830067
1662000, -65.647294
1662500, -65.462887
1663000, -65.278402
1663500, -65.092400
1664000, -64.906441
1664500, -64.719078
1665000, -64.531855
1665500, -64.343326
1666000, -64.155043
1666500, -63.965571
1667000, -63.776461
1667500, -63.586253
1668000, -63.396481
1668500, -63.205702
1669000, -63.015463
1669500, -62.824329
1670000, -62.633811
1670500, -62.442445
1671000, -62.251757
1671500, -62.060302
1672000, -61.869617
1672500, -61.678226
1673000, -61.487620
1673500, -61.296329
1674000, -61.105867
1674500, -60.914785
1675000, -60.724571
1675500, -60.533716
1676000, -60.343692
1676500, -60.153023
1677000, -59.963206
1677500, -59.772765
1678000, -59.583112
1678500, -59.392723
1679000, -59.203054
1679500, -59.012614
1680000, -58.822887
1680500, -58.632282
1681000, -58.442188
1681500, -58.251064
1682000, -58.060342
1682500, -57.868520
1683000, -57.676946
1683500, -57.483993
1684000, -57.291018
1684500, -57.096458
1685000, -56.901713
1685500, -56.705155
1686000, -56.508023
1686500, -56.308656
1687000, -56.108363
1687500, -55.905543
1688000, -55.701431
1688500, -55.494215
1689000, -55.285068
1689500, -55.072264
1690000, -54.857037
1690500, -54.637493
1691000, -54.414597
1691500, -54.186432
1692000, -53.954044
1692500, -53.715495
1693000, -53.471448
1693500, -53.219700
1694000, -52.961000
1694500, -52.693116
1695000, -52.416274
1695500, -52.127825
1696000, -51.828045
1696500, -51.513888
1697000, -51.184905
1697500, -50.837708
1698000, -50.471362
1698500, -50.081441
1699000, -49.666316
1699500, -49.220384
1700000, -48.740485
1700500, -48.219519
1701000, -47.652178
1701500, -47.028699
1702000, -46.340752
1702500, -45.574186
1703000, -44.715126
1703500, -43.743127
1704000, -42.635802
1704500, -41.361718
1705000, -39.884744
1705500, -38.156544
1706000, -36.120297
1706500, -33.704076
1707000, -30.827621
1707500, -27.402164
1708000, -23.351667
1708500, -18.637580
1709000, -13.316480
1709500, -7.599482
1710000, -1.899393
1710500, 3.226344
1711000, 7.242882
1711500, 9.848269
1712000, 11.042812
1712500, 11.046371
1713000, 10.148806
1713500, 8.618042
1714000, 6.659757
1714500, 4.424826
1715000, 2.016496
1715500, -0.490896
1716000, -3.048347
1716500, -5.619105
1717000, -8.180575
1717500, -10.714773
1718000, -13.212434
1718500, -15.665474
1719000, -18.071960
1719500, -20.429323
1720000, -22.740597
1720500, -25.007353
1721000, -27.235890
1721500, -29.432353
1722000, -31.607255
1722500, -33.770148
1723000, -35.935350
1723500, -38.116002
1724000, -40.329423
1724500, -42.590142
1725000, -44.913976
1725500, -47.310073
1726000, -49.782541
1726500, -52.320343
1727000, -54.896679
1727500, -57.459210
1728000, -59.933843
1728500, -62.228363
1729000, -64.253676
1729500, -65.942163
1730000, -67.270069
1730500, -68.253424
1731000, -68.941657
1731500, -69.393744
1732000, -69.669439
1732500, -69.816287
1733000, -69.873300
1733500, -69.866414
1734000, -69.816292
1734500, -69.734815
1735000, -69.632483
1735500, -69.514077
1736000, -69.385222
1736500, -69.247390
1737000, -69.103970
1737500, -68.954923
1738000, -68.802614
1738500, -68.646308
1739000, -68.487895
1739500, -68.326323
1740000, -68.163257
1740500, -67.997496
1741000, -67.830599
1741500, -67.661283
1742000, -67.491053
1742500, -67.318597
1743000, -67.145395
1743500, -66.970120
1744000, -66.794242
1744500, -66.616416
1745000, -66.438102
1745500, -66.257959
1746000, -66.077447
1746500, -65.895230
1747000, -65.712758
1747500, -65.528686
1748000, -65.344463
1748500, -65.158754
1749000, -64.973013
1749500, -64.785907
1750000, -64.598871
1750500, -64.410561
1751000, -64.222425
1751500, -64.033130
1752000, -63.844128
1752500, -63.654066
1753000, -63.464373
1753500, -63.273707
1754000, -63.083509
1754500, -62.892447
1755000, -62.701944
1755500, -62.510635
1756000, -62.319939
1756500, -62.128511
1757000, -61.937785
1757500, -61.746407
1758000, -61.555759
1758500, -61.364471
1759000, -61.173950
1759500, -60.982845
1760000, -60.792572
1760500, -60.601714
1761000, -60.411636
1761500, -60.220960
1762000, -60.031077
1762500, -59.840630
1763000, -59.650941
1763500, -59.460580
1764000, -59.270894
1764500, -59.080491
1765000, -58.890746
1765500, -58.700218
1766000, -58.510180
1766500, -58.319186
1767000, -58.128558
1767500, -57.936890
1768000, -57.745483
1768500, -57.552799
1769000, -57.360080
1769500, -57.165857
1770000, -56.971422
1770500, -56.775317
1771000, -56.578661
1771500, -56.379882
1772000, -56.180179
1772500, -55.978043
1773000, -55.774694
1773500, -55.568405
1774000, -55.360229
1774500, -55.148533
1775000, -54.934441
1775500, -54.716273
1776000, -54.494872
1776500, -54.268409
1777000, -54.037817
1777500, -53.801332
1778000, -53.559576
1778500, -53.310430
1779000, -53.054532
1779500, -52.789824
1780000, -52.516546
1780500, -52.232137
1781000, -51.936770
1781500, -51.627759
1782000, -51.304547
1782500, -50.963864
1783000, -50.605014
1783500, -50.223696
1784000, -49.818234
1784500, -49.383612
1785000, -48.916654
1785500, -48.410980
1786000, -47.861343
1786500, -47.258912
1787000, -46.595549
1787500, -45.858360
1788000, -45.034692
1788500, -44.105665
1789000, -43.050507
1789500, -41.840339
1790000, -40.441778
1790500, -38.809968
1791000, -36.892378
1791500, -34.621661
1792000, -31.921162
1792500, -28.703031
1793000, -24.885114
1793500, -20.409363
1794000, -15.292251
1794500, -9.680970
1795000, -3.916181
1795500, 1.483698
1796000, 5.948994
1796500, 9.077415
1797000, 10.762362
1797500, 11.162055
1798000, 10.555183
1798500, 9.225343
1799000, 7.400767
1799500, 5.251617
1800000, 2.895743
1800500, 0.417483
1801000, -2.126897
1801500, -4.695862
1802000, -7.263116
1802500, -9.808352
1803000, -12.320264
1803500, -14.789651
1804000, -17.213262
1804500, -19.588041
1805000, -21.915911
1805500, -24.197748
1806000, -26.439600
1806500, -28.646625
1807000, -30.828394
1807500, -32.993820
1808000, -35.156473
1808500, -37.329453
1809000, -39.529545
1809500, -41.771327
1810000, -44.071261
1810500, -46.440335
1811000, -48.885852
1811500, -51.402174
1812000, -53.969446
1812500, -56.544339
1813000, -59.060644
1813500, -61.430639
1814000, -63.562063
1814500, -65.376433
1815000, -66.834018
1815500, -67.936588
1816000, -68.724488
1816500, -69.254173
1817000, -69.587293
1817500, -69.775321
1818000, -69.861225
1818500, -69.874499
1819000, -69.838356
1819500, -69.766693
1820000, -69.671250
1820500, -69.557823
1821000, -69.432564
1821500, -69.297463
1822000, -69.156096
1822500, -69.008714
1823000, -68.857716
1823500, -68.702554
1824000, -68.545079
1824500, -68.384379
1825000, -68.222051
1825500, -68.057010
1826000, -67.890731
1826500, -67.722042
1827000, -67.552357
1827500, -67.380462
1828000, -67.207745
1828500, -67.032979
1829000, -66.857537
1829500, -66.680176
1830000, -66.502257
1830500, -66.322536
1831000, -66.142376
1831500, -65.960536
1832000, -65.778378
1832500, -65.594648
1833000, -65.410699
1833500, -65.225290
1834000, -65.039779
1834500, -64.852931
1835000, -64.666090
1835500, -64.478005
1836000, -64.290025
1836500, -64.100913
1837000, -63.912023
1837500, -63.722112
1838000, -63.532506
1838500, -63.341958
1839000, -63.151810
1839500, -62.960827
1840000, -62.770348
1840500, -62.579102
1841000, -62.388407
1841500, -62.197014
1842000, -62.006255
1842500, -61.814893
1843000, -61.624211
1843500, -61.432929
1844000, -61.242356
1844500, -61.051233
1845000, -60.860886
1845500, -60.670012
1846000, -60.479876
1846500, -60.289188
1847000, -60.099240
1847500, -59.908768
1848000, -59.719032
1848500, -59.528690
1849000, -59.338985
1849500, -59.148616
1850000, -58.958856
1850500, -58.768404
1851000, -58.578427
1851500, -58.387564
1852000, -58.197034
1852500, -58.005522
1853000, -57.814281
1853500, -57.621862
1854000, -57.429401
1854500, -57.235513
1855000, -57.041389
1855500, -56.845690
1856000, -56.649477
1856500, -56.451257
1857000, -56.252124
1857500, -56.050653
1858000, -55.847989
1858500, -55.642559
1859000, -55.435305
1859500, -55.224672
1860000, -55.011681
1860500, -54.794837
1861000, -54.574888
1861500, -54.350084
1862000, -54.121251
1862500, -53.886713
1863000, -53.647147
1863500, -53.400507
1864000, -53.147326
1864500, -52.885633
1865000, -52.615770
1865500, -52.335255
1866000, -52.044162
1866500, -51.740043
1867000, -51.422361
1867500, -51.087945
1868000, -50.736114
1868500, -50.362935
1869000, -49.966673
1869500, -49.542860
1870000, -49.088301
1870500, -48.597052
1871000, -48.064207
1871500, -47.481617
1872000, -46.841535
1872500, -46.132233
1873000, -45.341832
1873500, -44.452623
1874000, -43.445548
1874500, -42.293946
1875000, -40.967204
1875500, -39.424191
1876000, -37.615941
1876500, -35.479643
1877000, -32.942681
1877500, -29.919528
1878000, -26.324782
1878500, -22.087275
1879000, -17.190730
1879500, -11.727168
1880000, -5.965160
1880500, -0.366898
1881000, 4.492040
1881500, 8.127331
1882000, 10.321263
1882500, 11.151774
1883000, 10.870479
1883500, 9.769789
1884000, 8.099482
1884500, 6.050636
1885000, 3.757317
1885500, 1.315198
1886000, -1.211227
1886500, -3.774995
1887000, -6.345695
1887500, -8.900385
1888000, -11.425530
1888500, -13.910653
1889000, -16.351113
1889500, -18.743280
1890000, -21.087968
1890500, -23.385598
1891000, -25.641504
1891500, -27.860004
1892000, -30.049788
1892500, -32.219290
1893000, -34.381702
1893500, -36.549294
1894000, -38.738237
1894500, -40.963118
1895000, -43.240818
1895500, -45.583784
1896000, -48.001990
1896500, -50.494362
1897000, -53.047274
1897500, -55.625771
1898000, -58.172329
1898500, -60.605213
1899000, -62.832310
1899500, -64.766990
1900000, -66.354500
1900500, -67.580961
1901000, -68.475538
1901500, -69.090270
1902000, -69.487363
1902500, -69.721719
1903000, -69.840316
1903500, -69.876443
1904000, -69.856149
1904500, -69.795576
1905000, -69.707894
1905500, -69.600037
1906000, -69.478779
1906500, -69.346684
1907000, -69.207562
1907500, -69.061976
1908000, -68.912382
1908500, -68.758427
1909000, -68.601941
1909500, -68.442146
1910000, -68.280584
1910500, -68.116282
1911000, -67.950641
1911500, -67.782592
1912000, -67.613463
1912500, -67.442139
1913000, -67.269919
1913500, -67.095668
1914000, -66.920671
1914500, -66.743780
1915000, -66.566265
1915500, -66.386972
1916000, -66.207173
1916500, -66.025718
1917000, -65.843879
1917500, -65.660496
1918000, -65.476829
1918500, -65.291727
1919000, -65.106455
1919500, -64.919870
1920000, -64.733230
1920500, -64.545375
1921000, -64.357560
1921500, -64.168637
1922000, -63.979871
1922500, -63.790115
1923000, -63.600606
1923500, -63.410182
1924000, -63.220094
1924500, -63.029195
1925000, -62.838743
1925500, -62.647560
1926000, -62.456872
1926500, -62.265515
1927000, -62.074732
1927500, -61.883371
1928000, -61.692648
1928500, -61.501367
1929000, -61.310742
1929500, -61.119602
1930000, -60.929180
1930500, -60.738289
1931000, -60.548096
1931500, -60.357397
1932000, -60.167390
1932500, -59.976896
1933000, -59.787120
1933500, -59.596799
1934000, -59.407081
1934500, -59.216746
1935000, -59.026977
1935500, -58.836585
1936000, -58.646657
1936500, -58.455914
1937000, -58.265478
1937500, -58.074115
1938000, -57.882985
1938500, -57.690785
1939000, -57.498548
1939500, -57.304967
1940000, -57.111135
1940500, -56.915796
1941000, -56.719991
1941500, -56.522299
1942000, -56.323712
1942500, -56.122883
1943000, -55.920863
1943500, -55.716252
1944000, -55.509886
1944500, -55.300284
1945000, -55.088367
1945500, -54.872719
1946000, -54.654118
1946500, -54.430877
1947000, -54.203721
1947500, -53.971051
1948000, -53.733600
1948500, -53.489387
1949000, -53.238843
1949500, -52.980079
1950000, -52.713538
1950500, -52.436809
1951000, -52.149874
1951500, -51.850378
1952000, -51.537961
1952500, -51.209543
1953000, -50.864370
1953500, -50.498950
1954000, -50.111489
1954500, -49.697745
1955000, -49.254841
1955500, -48.777012
1956000, -48.259912
1956500, -47.695644
1957000, -47.077241
1957500, -46.393814
1958000, -45.634076
1958500, -44.781813
1959000, -43.819525
1959500, -42.722605
1960000, -41.462713
1960500, -40.001679
1961000, -38.294634
1961500, -36.282917
1962000, -33.898164
1962500, -31.058171
1963000, -27.676794
1963500, -23.673946
1964000, -19.009190
1964500, -13.726909
1965000, -8.027871
1965500, -2.307283
1966000, 2.880085
1966500, 6.993164
1967000, 9.705663
1967500, 10.999094
1968000, 11.080030
1968500, 10.239701
1969000, 8.747122
1969500, 6.815197
1970000, 4.596036
1970500, 2.198259
1971000, -0.304444
1971500, -2.858972
1972000, -5.430310
1972500, -7.992522
1973000, -10.529623
1973500, -13.029669
1974000, -15.486607
1974500, -17.896011
1975000, -20.257611
1975500, -22.571577
1976000, -24.842136
1976500, -27.072887
1977000, -29.271930
1977500, -31.447375
1978000, -33.611301
1978500, -35.775329
1979000, -37.955048
1979500, -40.164941
1980000, -42.422231
1980500, -44.740390
1981000, -47.131467
1981500, -49.597942
1982000, -52.132139
1982500, -54.706649
1983000, -57.272907
1983500, -59.756416
1984000, -62.067794
1984500, -64.115096
1985000, -65.830506
1985500, -67.184218
1986000, -68.192147
1986500, -68.899510
1987000, -69.367477
1987500, -69.653750
1988000, -69.809241
1988500, -69.871229
1989000, -69.868886
1989500, -69.820843
1990000, -69.741905
1990500, -69.640282
1991000, -69.523479
1991500, -69.394696
1992000, -69.258032
1992500, -69.114385
1993000, -68.966299
1993500, -68.813620
1994000, -68.658173
1994500, -68.499319
1995000, -68.338551
1995500, -68.175006
1996000, -68.010019
1996500, -67.842619
1997000, -67.674058
1997500, -67.503311
1998000, -67.331596
1998500, -67.157865
1999000, -66.983322
1999500, -66.806905
2000000, -66.629801
2000500, -66.450940
2001000, -66.271510
2001500, -66.090443
2002000, -65.908928
2002500, -65.725895
2003000, -65.542517
2003500, -65.357725
2004000, -65.172701
2004500, -64.986382
2005000, -64.799953
2005500, -64.612333
2006000, -64.424693
2006500, -64.235965
2007000, -64.047329
2007500, -63.857727
2008000, -63.668318
2008500, -63.478020
2009000, -63.288000
2009500, -63.097189
2010000, -62.906764
2010500, -62.715644
2011000, -62.524968
2011500, -62.333651
2012000, -62.142850
2012500, -61.951496
2013000, -61.760741
2013500, -61.569466
2014000, -61.378799
2014500, -61.187647
2015000, -60.997158
2015500, -60.806255
2016000, -60.616014
2016500, -60.425308
2017000, -60.235248
2017500, -60.044735
2018000, -59.854901
2018500, -59.664586
2019000, -59.474845
2019500, -59.284538
2020000, -59.094758
2020500, -58.904393
2021000, -58.714496
2021500, -58.523855
2022000, -58.333502
2022500, -58.142279
2023000, -57.951257
2023500, -57.759270
2024000, -57.567255
2024500, -57.373976
2025000, -57.180436
2025500, -56.985451
2026000, -56.790052
2026500, -56.592881
2027000, -56.394835
2027500, -56.194640
2028000, -55.993256
2028500, -55.789452
2029000, -55.583963
2029500, -55.375375
2030000, -55.164516
2030500, -54.950046
2031000, -54.732770
2031500, -54.511064
2032000, -54.285558
2032500, -54.054723
2033000, -53.819253
2033500, -53.577343
2034000, -53.329326
2034500, -53.073383
2035000, -52.809908
2035500, -52.536730
2036000, -52.253736
2036500, -51.958648
2037000, -51.651279
2037500, -51.328623
2038000, -50.989861
2038500, -50.631917
2039000, -50.252942
2039500, -49.848826
2040000, -49.417094
2040500, -48.952144
2041000, -48.450161
2041500, -47.903492
2042000, -47.305912
2042500, -46.646904
2043000, -45.916243
2043500, -45.099106
2044000, -44.179189
2044500, -43.133673
2045000, -41.936567
2045500, -40.552804
2046000, -38.940584
2046500, -37.045837
2047000, -34.804513
2047500, -32.138346
2048000, -28.962341
2048500, -25.190784
2049000, -20.765235
2049500, -15.692138
2050000, -10.109085
2050500, -4.338876
2051000, 1.107366
2051500, 5.659747
2052000, 8.894149
2052500, 10.683844
2053000, 11.169440
2053500, 10.627766
2054000, 9.342466
2054500, 7.548724
2055000, 5.418546
2055500, 3.075380
2056000, 0.603466
2056500, -1.936978
2057000, -4.505689
2057500, -7.073266
2058000, -9.621088
2058500, -12.135291
2059000, -14.608499
2059500, -17.035112
2060000, -19.413934
2060500, -21.744655
2061000, -24.030490
2061500, -26.274435
2062000, -28.484238
2062500, -30.667016
2063000, -32.833936
2063500, -34.996011
2064000, -37.168214
2064500, -39.365120
2065000, -41.603778
2065500, -43.898363
2066000, -46.262551
2066500, -48.701884
2067000, -51.213852
2067500, -53.778013
2068000, -56.354634
2068500, -58.877421
2069000, -61.261938
2069500, -63.413524
2070000, -65.253933
2070500, -66.737933
2071000, -67.866400
2071500, -68.675228
2072000, -69.222499
2072500, -69.567733
2073000, -69.765513
2073500, -69.857280
2074000, -69.875648
2074500, -69.842042
2075000, -69.773156
2075500, -69.678660
2076000, -69.566924
2076500, -69.441873
2077000, -69.307958
2077500, -69.166453
2078000, -69.020018
2078500, -68.868716
2079000, -68.714384
2079500, -68.556524
2080000, -68.396593
2080500, -68.233836
2081000, -68.069530
2081500, -67.902797
2082000, -67.734824
2082500, -67.564668
2083000, -67.393474
2083500, -67.220275
2084000, -67.046198
2084500, -66.870264
2085000, -66.693582
2085500, -66.515162
2086000, -66.336112
2086500, -66.155443
2087000, -65.974265
2087500, -65.791589
2088000, -65.608512
2088500, -65.424040
2089000, -65.239275
2089500, -65.053232
2090000, -64.867018
2090500, -64.679637
2091000, -64.492179
2091500, -64.303652
2092000, -64.115158
2092500, -63.925714
2093000, -63.736413
2093500, -63.546248
2094000, -63.356303
2094500, -63.165589
2095000, -62.975201
2095500, -62.784150
2096000, -62.593495
2096500, -62.402225
2097000, -62.211416
2097500, -62.020075
2098000, -61.829290
2098500, -61.638022
2099000, -61.447316
2099500, -61.256155
2100000, -61.065605
2100500, -60.874666
2101000, -60.684364
2101500, -60.493640
2102000, -60.303524
2102500, -60.112989
2103000, -59.923087
2103500, -59.732769
2104000, -59.543005
2104500, -59.352723
2105000, -59.162934
2105500, -58.972600
2106000, -58.782737
2106500, -58.592201
2107000, -58.401937
2107500, -58.210856
2108000, -58.019948
2108500, -57.828160
2109000, -57.636358
2109500, -57.443372
2110000, -57.250119
2110500, -57.055485
2111000, -56.860432
2111500, -56.663733
2112000, -56.466193
2112500, -56.266603
2113000, -56.065835
2113500, -55.862736
2114000, -55.658045
2114500, -55.450406
2115000, -55.240556
2115500, -55.027220
2116000, -54.811192
2116500, -54.590956
2117000, -54.367043
2117500, -54.137992
2118000, -53.904409
2118500, -53.664715
2119000, -53.419146
2119500, -53.165947
2120000, -52.905429
2120500, -52.635691
2121000, -52.356528
2121500, -52.065734
2122000, -51.763142
2122500, -51.445989
2123000, -51.113386
2123500, -50.762376
2124000, -50.391375
2124500, -49.996381
2125000, -49.575287
2125500, -49.122641
2126000, -48.634793
2126500, -48.104705
2127000, -47.526533
2127500, -46.890445
2128000, -46.187188
2128500, -45.402704
2129000, -44.521851
2129500, -43.523653
2130000, -42.384131
2130500, -41.070903
2131000, -39.545749
2131500, -37.758274
2132000, -35.648831
2132500, -33.143399
2133000, -30.159324
2133500, -26.608671
2134000, -22.420285
2134500, -17.570397
2135000, -12.142648
2135500, -6.388414
2136000, -0.759878
2136500, 4.172715
2137000, 7.908750
2137500, 10.209603
2138000, 11.132382
2138500, 10.923149
2139000, 9.872821
2139500, 8.237631
2140000, 6.210806
2140500, 3.932247
2141000, 1.498032
2141500, -1.023464
2142000, -3.586164
2142500, -6.156727
2143000, -8.713643
2143500, -11.240914
2144000, -13.729708
2144500, -16.173170
2145000, -18.569373
2145500, -20.917046
2146000, -23.218531
2146500, -25.476730
2147000, -27.698256
2147500, -29.889464
2148000, -32.060709
2148500, -34.222577
2149000, -36.389684
2149500, -38.575952
2150000, -40.798161
2150500, -43.070998
2151000, -45.409347
2151500, -47.821395
2152000, -50.308956
2152500, -52.857767
2153000, -55.436443
2153500, -57.987249
2154000, -60.432377
2154500, -62.677331
2155000, -64.636343
2155500, -66.249788
2156000, -67.502804
2156500, -68.419687
2157000, -69.053456
2157500, -69.464053
2158000, -69.709198
2158500, -69.834503
2159000, -69.876256
2159500, -69.858938
2160000, -69.801374
2160500, -69.714864
2161000, -69.608783
2161500, -69.487859
2162000, -69.356967
2162500, -69.217788
2163000, -69.073135
2163500, -68.923298
2164000, -68.770146
2164500, -68.613324
2165000, -68.454266
2165500, -68.292321
2166000, -68.128718
2166500, -67.962666
2167000, -67.795294
2167500, -67.625738
2168000, -67.455075
2168500, -67.282416
2169000, -67.108815
2169500, -66.933368
2170000, -66.757117
2170500, -66.579144
2171000, -66.400482
2171500, -66.220216
2172000, -66.039383
2172500, -65.857068
2173000, -65.674298
2173500, -65.490150
2174000, -65.305652
2174500, -65.119890
2175000, -64.933900
2175500, -64.746763
2176000, -64.559495
2176500, -64.371176
2177000, -64.182833
2177500, -63.993553
2178000, -63.804369
2178500, -63.614342
2179000, -63.424483
2179500, -63.233871
2180000, -63.043528
2180500, -62.852543
2181000, -62.661910
2181500, -62.470686
2182000, -62.279874
2182500, -62.088549
2183000, -61.897726
2183500, -61.706459
2184000, -61.515715
2184500, -61.324544
2185000, -61.133937
2185500, -60.942964
2186000, -60.752606
2186500, -60.561868
2187000, -60.371701
2187500, -60.181148
2188000, -59.991184
2188500, -59.800866
2189000, -59.611084
2189500, -59.420829
2190000, -59.231035
2190500, -59.040732
2191000, -58.850878
2191500, -58.660425
2192000, -58.470235
2192500, -58.279283
2193000, -58.088481
2193500, -57.896841
2194000, -57.705217
2194500, -57.512493
2195000, -57.319505
2195500, -57.125202
2196000, -56.930467
2196500, -56.734214
2197000, -56.537161
2197500, -56.338155
2198000, -56.137988
2198500, -55.935569
2199000, -55.731654
2199500, -55.524940
2200000, -55.316077
2200500, -55.103850
2201000, -54.888975
2201500, -54.670119
2202000, -54.447725
2202500, -54.220383
2203000, -53.988621
2203500, -53.751073
2204000, -53.507881
2204500, -53.257347
2205000, -52.999706
2205500, -52.733314
2206000, -52.457880
2206500, -52.171265
2207000, -51.873233
2207500, -51.561361
2208000, -51.234686
2208500, -50.890341
2209000, -50.527021
2209500, -50.140822
2210000, -49.729629
2210500, -49.288551
2211000, -48.813956
2211500, -48.299512
2212000, -47.739471
2212500, -47.124927
2213000, -46.447162
2213500, -45.693021
2214000, -44.848675
2214500, -43.894842
2215000, -42.809415
2215500, -41.562425
2216000, -40.118374
2216500, -38.430960
2217000, -36.444591
2217500, -34.089732
2218000, -31.287006
2218500, -27.948453
2219000, -23.994216
2219500, -19.377413
2220000, -14.137071
2220500, -8.457263
2221000, -2.721435
2221500, 2.525925
2222000, 6.732911
2222500, 9.554043
2223000, 10.947254
2223500, 11.109158
2224000, 10.327056
2224500, 8.875496
2225000, 6.969956
2225500, 4.768569
2226000, 2.380750
2226500, -0.115705
2227000, -2.668214
2227500, -5.238842
2228000, -7.802853
2228500, -10.341885
2229000, -12.845454
2229500, -15.305350
2230000, -17.718804
2230500, -20.083561
2231000, -22.401314
2231500, -24.674410
2232000, -26.908470
2232500, -29.109141
2233000, -31.286318
2233500, -33.450083
2234000, -35.614055
2234500, -37.791642
2235000, -39.999312
2235500, -42.252063
2236000, -44.565722
2236500, -46.950616
2237000, -49.412142
2237500, -51.941492
2238000, -54.515022
2238500, -57.083620
2239000, -59.576973
2239500, -61.903903
2240000, -63.974038
2240500, -65.715243
2241000, -67.096246
2241500, -68.128095
2242000, -68.856271
2242500, -69.339435
2243000, -69.637818
2243500, -69.801083
2244000, -69.869401
2244500, -69.870592
2245000, -69.825878
2245500, -69.748395
2246000, -69.648677
2246500, -69.532360
2247000, -69.404821
2247500, -69.268192
2248000, -69.125480
2248500, -68.977215
2249000, -68.825320
2249500, -68.669590
2250000, -68.511444
2250500, -68.350339
2251000, -68.187461
2251500, -68.022107
2252000, -67.855349
2252500, -67.686403
2253000, -67.516283
2253500, -67.344169
2254000, -67.171053
2254500, -66.996100
2255000, -66.820288
2255500, -66.642767
2256000, -66.464501
2256500, -66.284644
2257000, -66.104163
2257500, -65.922214
2258000, -65.739757
2258500, -65.555937
2259000, -65.371714
2259500, -65.186240
2260000, -65.000481
2260500, -64.813594
2261000, -64.626526
2261500, -64.438420
2262000, -64.250236
2262500, -64.061127
2263000, -63.872059
2263500, -63.682170
2264000, -63.492400
2264500, -63.301893
2265000, -63.111603
2265500, -62.920684
2266000, -62.730078
2266500, -62.538905
2267000, -62.348097
2267500, -62.156794
2268000, -61.965942
2268500, -61.774682
2269000, -61.583908
2269500, -61.392734
2270000, -61.202079
2270500, -61.011079
2271000, -60.820667
2271500, -60.629916
2272000, -60.439704
2272500, -60.249135
2273000, -60.059114
2273500, -59.868768
2274000, -59.678949
2274500, -59.488707
2275000, -59.298901
2275500, -59.108622
2276000, -58.918760
2276500, -58.728373
2277000, -58.538250
2277500, -58.347420
2278000, -58.156721
2278500, -57.965228
2279000, -57.773781
2279500, -57.581318
2280000, -57.388597
2280500, -57.194623
2281000, -57.000207
2281500, -56.804398
2282000, -56.607828
2282500, -56.409401
2283000, -56.209832
2283500, -56.008087
2284000, -55.804932
2284500, -55.599123
2285000, -55.391231
2285500, -55.180095
2286000, -54.966356
2286500, -54.748859
2287000, -54.527961
2287500, -54.302303
2288000, -54.072337
2288500, -53.836774
2289000, -53.595822
2289500, -53.347828
2290000, -53.092952
2290500, -52.829608
2291000, -52.557641
2291500, -52.274961
2292000, -51.981264
2292500, -51.674438
2293000, -51.353451
2293500, -51.015514
2294000, -50.659551
2294500, -50.281795
2295000, -49.880112
2295500, -49.450154
2296000, -48.988305
2296500, -48.488905
2297000, -47.946301
2297500, -47.352466
2298000, -46.698909
2298500, -45.973674
2299000, -45.164162
2299500, -44.252249
2300000, -43.217468
2300500, -42.032322
2301000, -40.664377
2301500, -39.070578
2302000, -37.199616
2302500, -34.986395
2303000, -32.355450
2303500, -29.220400
2304000, -25.496830
2304500, -21.121232
2305000, -16.094564
2305500, -10.540371
2306000, -4.769028
2306500, 0.722357
2307000, 5.359202
2307500, 8.701583
2308000, 10.597186
2308500, 11.172546
2309000, 10.697464
2309500, 9.459707
2310000, 7.697074
2310500, 5.587897
2311000, 3.256983
2311500, 0.792847
2312000, -1.744468
2312500, -4.311773
2313000, -6.880632
2313500, -9.430011
2314000, -11.947528
2314500, -14.423491
2315000, -16.854141
2315500, -19.236217
2316000, -21.570900
2316500, -23.859600
2317000, -26.107074
2317500, -28.318626
2318000, -30.503452
2318500, -32.670719
2319000, -34.833231
2319500, -37.003890
2320000, -39.198778
2320500, -41.433237
2321000, -43.723525
2321500, -46.081637
2322000, -48.515794
2322500, -51.022259
2323000, -53.584318
2323500, -56.161484
2324000, -58.691713
2324500, -61.089332
2325000, -63.262074
2325500, -65.127609
2326000, -66.639483
2326500, -67.793299
2327000, -68.624691
2327500, -69.188991
2328000, -69.547834
2328500, -69.754614
2329000, -69.853548
2329500, -69.876103
2330000, -69.846217
2330500, -69.779116
2331000, -69.686689
2331500, -69.575613
2332000, -69.451863
2332500, -69.318084
2333000, -69.177522
2333500, -69.030977
2334000, -68.880446
2334500, -68.725884
2335000, -68.568709
2335500, -68.408486
2336000, -68.246369
2336500, -68.081737
2337000, -67.915617
2337500, -67.747298
2338000, -67.577737
2338500, -67.406183
2339000, -67.233567
2339500, -67.059119
2340000, -66.883757
2340500, -66.706695
2341000, -66.528838
2341500, -66.349399
2342000, -66.169283
2342500, -65.987707
2343000, -65.805577
2343500, -65.622096
2344000, -65.438159
2344500, -65.252981
2345000, -65.067465
2345500, -64.880830
2346000, -64.693967
2346500, -64.506080
2347000, -64.318064
2347500, -64.129134
2348000, -63.940190
2348500, -63.750446
2349000, -63.560776
2349500, -63.370383
2350000, -63.180155
2350500, -62.989310
2351000, -62.798741
2351500, -62.607626
2352000, -62.416831
2352500, -62.225556
2353000, -62.034683
2353500, -61.843425
2354000, -61.652622
2354500, -61.461443
2355000, -61.270744
2355500, -61.079717
2356000, -60.889234
2356500, -60.698456
2357000, -60.508192
2357500, -60.317602
2358000, -60.127526
2358500, -59.937147
2359000, -59.747292
2359500, -59.557062
2360000, -59.367248
2360500, -59.176996
2361000, -58.987129
2361500, -58.796813
2362000, -58.606759
2362500, -58.416053
2363000, -58.225464
2363500, -58.034119
2364000, -57.842824
2364500, -57.650600
2365000, -57.458131
2365500, -57.264474
2366000, -57.070370
2366500, -56.874924
2367000, -56.678780
2367500, -56.480884
2368000, -56.281876
2368500, -56.080776
2369000, -55.878280
2369500, -55.673294
2370000, -55.466309
2370500, -55.256210
2371000, -55.043566
2371500, -54.827325
2372000, -54.607838
2372500, -54.383790
2373000, -54.155557
2373500, -53.921903
2374000, -53.683121
2374500, -53.437598
2375000, -53.185420
2375500, -52.925056
2376000, -52.656482
2376500, -52.377654
2377000, -52.088202
2377500, -51.786121
2378000, -51.470543
2378500, -51.138742
2379000, -50.789600
2379500, -50.419774
2380000, -50.027100
2380500, -49.607659
2381000, -49.157928
2381500, -48.672443
2382000, -48.146135
2382500, -47.571363
2383000, -46.940309
2383500, -46.242094
2384000, -45.464579
2384500, -44.591096
2385000, -43.602846
2385500, -42.474440
2386000, -41.175822
2386500, -39.667540
2387000, -37.901924
2387500, -35.818412
2388000, -33.345664
2388500, -30.399912
2389000, -26.894883
2389500, -22.755132
2390000, -17.953559
2390500, -12.561486
2391000, -6.818698
2391500, -1.161060
2392000, 3.842457
2392500, 7.680041
2393000, 10.088237
2393500, 11.106796
2394000, 10.971121
2394500, 9.974210
2395000, 8.374623
2395500, 6.371879
2396000, 4.107781
2396500, 1.682892
2397000, -0.834360
2397500, -3.394900
2398000, -5.966179
2398500, -8.524206
2399000, -11.054508
2399500, -13.545877
2400000, -15.993293
2400500, -18.392497
2401000, -20.744147
2401500, -23.048722
2402000, -25.310281
2402500, -27.533828
2403000, -29.727460
2403500, -31.899586
2404000, -34.062247
2404500, -36.227976
2405000, -38.412610
2405500, -40.631152
2406000, -42.900130
2406500, -45.232821
2407000, -47.639692
2407500, -50.121399
2408000, -52.667060
2408500, -55.244616
2409000, -57.800442
2409500, -60.255901
2410000, -62.519335
2410500, -64.501659
2411000, -66.142314
2411500, -67.421372
2412000, -68.362135
2412500, -69.014502
2413000, -69.440075
2413500, -69.695382
2414000, -69.828664
2414500, -69.875239
2415000, -69.862029
2415500, -69.806570
2416000, -69.722293
2416500, -69.617036
2417000, -69.497471
2417500, -69.366809
2418000, -69.228582
2418500, -69.083880
2419000, -68.934801
2419500, -68.781465
2420000, -68.625305
2420500, -68.465994
2421000, -68.304661
2421500, -68.140768
2422000, -67.975299
2422500, -67.807615
2423000, -67.638623
2423500, -67.467635
2424000, -67.295526
2424500, -67.121588
2425000, -66.946681
2425500, -66.770084
2426000, -66.592641
2426500, -66.413624
2427000, -66.233880
2427500, -66.052683
2428000, -65.870880
2428500, -65.687739
2429000, -65.504094
2429500, -65.319217
2430000, -65.133950
2430500, -64.947571
2431000, -64.760921
2431500, -64.573260
2432000, -64.385420
2432500, -64.196674
2433000, -64.007864
2433500, -63.818270
2434000, -63.628706
2434500, -63.438431
2435000, -63.248274
2435500, -63.057508
2436000, -62.866969
2436500, -62.675908
2437000, -62.485128
2437500, -62.293883
2438000, -62.102994
2438500, -61.911732
2439000, -61.720898
2439500, -61.529715
2440000, -61.338975
2440500, -61.147926
2441000, -60.957378
2441500, -60.766578
2442000, -60.576268
2442500, -60.385662
2443000, -60.195536
2443500, -60.005129
2444000, -59.815239
2444500, -59.625021
2445000, -59.435201
2445500, -59.244976
2446000, -59.055108
2446500, -58.864823
2447000, -58.674813
2447500, -58.484207
2448000, -58.293710
2448500, -58.102500
2449000, -57.911320
2449500, -57.719303
2450000, -57.527062
2450500, -57.333701
2451000, -57.139895
2451500, -56.944798
2452000, -56.749065
2452500, -56.551685
2453000, -56.353228
2453500, -56.152758
2454000, -55.950907
2454500, -55.746727
2455000, -55.540630
2455500, -55.331545
2456000, -55.119973
2456500, -54.904911
2457000, -54.686766
2457500, -54.464260
2458000, -54.237696
2458500, -54.005885
2459000, -53.769193
2459500, -53.526058
2460000, -53.276491
2460500, -53.019013
2461000, -52.753691
2461500, -52.478566
2462000, -52.193205
2462500, -51.895664
2463000, -51.585279
2463500, -51.259380
2464000, -50.916807
2464500, -50.554623
2465000, -50.170633
2465500, -49.761026
2466000, -49.322720
2466500, -48.850395
2467000, -48.339550
2467500, -47.782769
2468000, -47.173021
2468500, -46.499947
2469000, -45.752333
2469500, -44.914926
2470000, -43.970466
2470500, -42.895541
2471000, -41.662350
2471500, -40.234272
2472000, -38.567374
2472500, -36.605327
2473000, -34.281228
2473500, -31.514832
2474000, -28.220049
2474500, -24.314224
2475000, -19.748357
2475500, -14.550642
2476000, -8.894046
2476500, -3.144305
2477000, 2.160173
2477500, 6.461914
2478000, 9.392320
2478500, 10.888802
2479000, 11.133354
2479500, 10.412621
2480000, 9.002771
2480500, 7.125708
2481000, 4.941862
2481500, 2.565483
2482000, 0.074716
2482500, -2.474636
2483000, -5.045325
2483500, -7.610067
2484000, -10.151887
2484500, -12.657989
2485000, -15.121823
2485500, -17.538388
2486000, -19.907243
2486500, -22.228096
2487000, -24.504735
2487500, -26.741178
2488000, -28.944643
2488500, -31.122850
2489000, -33.287455
2489500, -35.450446
2490000, -37.626833
2490500, -39.831342
2491000, -42.080619
2491500, -44.388901
2492000, -46.768567
2492500, -49.223906
2493000, -51.749180
2493500, -54.320142
2494000, -56.891653
2494500, -59.393248
2495000, -61.736392
2495500, -63.828246
2496000, -65.596160
2496500, -67.004008
2497000, -68.061426
2497500, -68.810234
2498000, -69.310185
2498500, -69.620276
2499000, -69.792638
2499500, -69.866641
2500000, -69.872493
2500500, -71.839971
2501000, -73.152915
2501500, -74.036183
2502000, -74.630648
2502500, -75.034036
2503000, -75.305439
2503500, -75.489569
2504000, -75.610924
2504500, -75.691485
2505000, -75.740718
2505500, -75.770590
2506000, -75.783856
2506500, -75.787942
2507000, -75.782521
2507500, -75.772900
2508000, -75.757294
2508500, -75.739994
2509000, -75.718505
2509500, -75.696613
2510000, -75.671473
2510500, -75.646615
2511000, -75.619013
2511500, -75.592062
2512000, -75.562643
2512500, -75.534081
2513000, -75.503206
2513500, -75.473301
2514000, -75.441173
2514500, -75.410082
2515000, -75.376820
2515500, -75.344632
2516000, -75.310306
2516500, -75.277077
2517000, -75.241729
2517500, -75.207492
2518000, -75.171150
2518500, -75.135928
2519000, -75.098611
2519500, -75.062419
2520000, -75.024141
2520500, -74.986993
2521000, -74.947766
2521500, -74.909673
2522000, -74.869506
2522500, -74.830477
2523000, -74.789383
2523500, -74.749430
2524000, -74.707419
2524500, -74.666555
2525000, -74.623641
2525500, -74.581879
2526000, -74.538074
2526500, -74.495429
2527000, -74.450750
2527500, -74.407238
2528000, -74.361701
2528500, -74.317337
2529000, -74.270961
2529500, -74.225765
2530000, -74.178567
2530500, -74.132560
2531000, -74.084562
2531500, -74.037763
2532000, -73.988987
2532500, -73.941419
2533000, -73.891886
2533500, -73.843572
2534000, -73.793304
2534500, -73.744267
2535000, -73.693291
2535500, -73.643557
2536000, -73.591899
2536500, -73.541496
2537000, -73.489184
2537500, -73.438140
2538000, -73.385204
2538500, -73.333549
2539000, -73.280018
2539500, -73.227782
2540000, -73.173688
2540500, -73.120903
2541000, -73.066276
2541500, -73.012974
2542000, -72.957847
2542500, -72.904058
2543000, -72.848461
2543500, -72.794215
2544000, -72.738177
2544500, -72.683505
2545000, -72.627060
2545500, -72.571997
2546000, -72.515178
2546500, -72.459757
2547000, -72.402600
2547500, -72.346856
2548000, -72.289395
2548500, -72.233364
2549000, -72.175634
2549500, -72.119351
2550000, -72.061387
2550500, -72.004887
2551000, -71.946724
2551500, -71.890038
2552000, -71.831706
2552500, -71.774863
2553000, -71.716389
2553500, -71.659421
2554000, -71.600840
2554500, -71.543778
2555000, -71.485123
2555500, -71.428003
2556000, -71.369307
2556500, -71.312162
2557000, -71.253459
2557500, -71.196322
2558000, -71.137646
2558500, -71.080551
2559000, -71.021934
2559500, -70.964913
2560000, -70.906384
2560500, -70.849461
2561000, -70.791042
2561500, -70.734239
2562000, -70.675955
2562500, -70.619299
2563000, -70.561177
2563500, -70.504696
2564000, -70.446764
2564500, -70.390486
2565000, -70.332774
2565500, -70.276729
2566000, -70.219264
2566500, -70.163479
2567000, -70.106289
2567500, -70.050791
2568000, -69.993903
2568500, -69.938718
2569000, -69.882152
2569500, -69.827292
2570000, -69.771057
2570500, -69.716535
2571000, -69.660649
2571500, -69.606484
2572000, -69.550967
2572500, -69.497179
2573000, -69.442052
2573500, -69.388665
2574000, -69.333950
2574500, -69.280984
2575000, -69.226702
2575500, -69.174178
2576000, -69.120350
2576500, -69.068289
2577000, -69.014935
2577500, -68.963357
2578000, -68.910492
2578500, -68.859400
2579000, -68.807021
2579500, -68.756417
2580000, -68.704531
2580500, -68.654422
2581000, -68.603039
2581500, -68.553439
2582000, -68.502573
2582500, -68.453496
2583000, -68.403162
2583500, -68.354623
2584000, -68.304836
2584500, -68.256850
2585000, -68.207624
2585500, -68.160206
2586000, -68.111556
2586500, -68.064719
2587000, -68.016659
2587500, -67.970418
2588000, -67.922956
2588500, -67.877305
2589000, -67.830427
2589500, -67.785356
2590000, -67.739060
2590500, -67.694569
2591000, -67.648856
2591500, -67.604951
2592000, -67.559829
2592500, -67.516518
2593000, -67.471995
2593500, -67.429288
2594000, -67.385375
2594500, -67.343281
2595000, -67.299988
2595500, -67.258518
2596000, -67.215855
2596500, -67.175018
2597000, -67.132996
2597500, -67.092802
2598000, -67.051429
2598500, -67.011888
2599000, -66.971173
2599500, -66.932287
2600000, -66.892216
2600500, -66.853962
2601000, -66.814518
2601500, -66.776885
2602000, -66.738062
2602500, -66.701049
2603000, -66.662847
2603500, -66.626456
2604000, -66.588879
2604500, -66.553114
2605000, -66.516168
2605500, -66.481036
2606000, -66.444729
2606500, -66.410237
2607000, -66.374574
2607500, -66.340730
2608000, -66.305720
2608500, -66.272530
2609000, -66.238179
2609500, -66.205652
2610000, -66.171967
2610500, -66.140108
2611000, -66.107097
2611500, -66.075913
2612000, -66.043582
2612500, -66.013080
2613000, -65.981434
2613500, -65.951613
2614000, -65.920637
2614500, -65.891471
2615000, -65.861142
2615500, -65.832615
2616000, -65.802923
2616500, -65.775030
2617000, -65.745971
2617500, -65.718710
2618000, -65.690285
2618500, -65.663658
2619000, -65.635870
2619500, -65.609881
2620000, -65.582735
2620500, -65.557388
2621000, -65.530888
2621500, -65.506188
2622000, -65.480339
2622500, -65.456292
2623000, -65.431099
2623500, -65.407709
2624000, -65.383177
2624500, -65.360449
2625000, -65.336581
2625500, -65.314519
2626000, -65.291321
2626500, -65.269928
2627000, -65.247403
2627500, -65.226683
2628000, -65.204833
2628500, -65.184790
2629000, -65.163619
2629500, -65.144254
2630000, -65.123764
2630500, -65.105080
2631000, -65.085273
2631500, -65.067271
2632000, -65.048148
2632500, -65.030829
2633000, -65.012391
2633500, -64.995756
2634000, -64.978000
2634500, -64.962037
2635000, -64.944942
2635500, -64.929627
2636000, -64.913174
2636500, -64.898496
2637000, -64.882675
2637500, -64.868625
2638000, -64.853431
2638500, -64.840004
2639000, -64.825434
2639500, -64.812629
2640000, -64.798679
2640500, -64.786493
2641000, -64.773163
2641500, -64.761594
2642000, -64.748882
2642500, -64.737929
2643000, -64.725832
2643500, -64.715492
2644000, -64.704010
2644500, -64.694280
2645000, -64.683409
2645500, -64.674287
2646000, -64.664023
2646500, -64.655506
2647000, -64.645845
2647500, -64.637928
2648000, -64.628865
2648500, -64.621544
2649000, -64.613075
2649500, -64.606343
2650000, -64.598463
2650500, -64.592315
2651000, -64.585016
2651500, -64.579444
2652000, -64.572720
2652500, -64.567719
2653000, -64.561561
2653500, -64.557121
2654000, -64.551523
2654500, -64.547636
2655000, -64.542587
2655500, -64.539243
2656000, -64.534735
2656500, -64.531925
2657000, -64.527947
2657500, -64.525661
2658000, -64.522201
2658500, -64.520428
2659000, -64.517476
2659500, -64.516204
2660000, -64.513749
2660500, -64.512965
2661000, -64.510993
2661500, -64.510686
2662000, -64.509185
2662500, -64.509341
2663000, -64.508298
2663500, -64.508903
2664000, -64.508303
2664500, -64.509343
2665000, -64.509173
2665500, -64.510634
2666000, -64.510879
2666500, -64.512746
2667000, -64.513390
2667500, -64.515648
2668000, -64.516676
2668500, -64.519310
2669000, -64.520707
2669500, -64.523699
2670000, -64.525449
2670500, -64.528785
2671000, -64.530871
2671500, -64.534534
2672000, -64.536940
2672500, -64.540914
2673000, -64.543623
2673500, -64.547891
2674000, -64.550887
2674500, -64.555432
2675000, -64.558699
2675500, -64.563504
2676000, -64.567024
2676500, -64.572073
2677000, -64.575829
2677500, -64.581105
2678000, -64.585081
2678500, -64.590568
2679000, -64.594746
2679500, -64.600426
2680000, -64.604792
2680500, -64.610648
2681000, -64.615184
2681500, -64.621201
2682000, -64.625890
2682500, -64.632052
2683000, -64.636878
2683500, -64.643169
2684000, -64.648117
2684500, -64.654520
2685000, -64.659574
2685500, -64.666075
2686000, -64.671220
2686500, -64.677803
2687000, -64.683024
2687500, -64.689674
2688000, -64.694957
2688500, -64.701660
2689000, -64.706989
2689500, -64.713732
2690000, -64.719095
2690500, -64.725862
2691000, -64.731246
2691500, -64.738025
2692000, -64.743416
2692500, -64.750195
2693000, -64.755580
2693500, -64.762346
2694000, -64.767714
2694500, -64.774456
2695000, -64.779794
2695500, -64.786500
2696000, -64.791799
2696500, -64.798458
2697000, -64.803706
2697500, -64.810309
2698000, -64.815496
2698500, -64.822032
2699000, -64.827149
2699500, -64.833609
2700000, -64.838647
2700500, -64.845023
2701000, -64.849973
2701500, -64.856256
2702000, -64.861110
2702500, -64.867293
2703000, -64.872044
2703500, -64.878119
2704000, -64.882760
2704500, -64.888721
2705000, -64.893246
2705500, -64.899086
2706000, -64.903489
2706500, -64.909203
2707000, -64.913478
2707500, -64.919061
2708000, -64.923204
2708500, -64.928651
2709000, -64.932657
2709500, -64.937963
2710000, -64.941828
2710500, -64.946991
2711000, -64.950712
2711500, -64.955728
2712000, -64.959301
2712500, -64.964167
2713000, -64.967591
2713500, -64.972305
2714000, -64.975576
2714500, -64.980135
2715000, -64.983253
2715500, -64.987657
2716000, -64.990619
2716500, -64.994866
2717000, -64.997672
2717500, -65.001761
2718000, -65.004410
2718500, -65.008338
2719000, -65.010824
2719500, -65.014587
2720000, -65.016909
2720500, -65.020505
2721000, -65.022660
2721500, -65.026090
2722000, -65.028079
2722500, -65.031342
2723000, -65.033167
2723500, -65.036266
2724000, -65.037928
2724500, -65.040864
2725000, -65.042366
2725500, -65.045142
2726000, -65.046486
2726500, -65.049104
2727000, -65.050293
2727500, -65.052757
2728000, -65.053794
2728500, -65.056106
2729000, -65.056995
2729500, -65.059159
2730000, -65.059903
2730500, -65.061922
2731000, -65.062524
2731500, -65.064403
2732000, -65.064867
2732500, -65.066608
2733000, -65.066939
2733500, -65.068547
2734000, -65.068747
2734500, -65.070226
2735000, -65.070300
2735500, -65.071653
2736000, -65.071605
2736500, -65.072838
2737000, -65.072672
2737500, -65.073787
2738000, -65.073508
2738500, -65.074510
2739000, -65.074121
2739500, -65.075015
2740000, -65.074521
2740500, -65.075310
2741000, -65.074715
2741500, -65.075405
2742000, -65.074712
2742500, -65.075306
2743000, -65.074521
2743500, -65.075024
2744000, -65.074151
2744500, -65.074566
2745000, -65.073609
2745500, -65.073941
2746000, -65.072904
2746500, -65.073157
2747000, -65.072044
2747500, -65.072223
2748000, -65.071038
2748500, -65.071146
2749000, -65.069894
2749500, -65.069936
2750000, -65.068620
2750500, -65.068599
2751000, -65.067224
2751500, -65.067145
2752000, -65.065714
2752500, -65.065580
2753000, -65.064098
2753500, -65.063912
2754000, -65.062382
2754500, -65.062150
2755000, -65.060576
2755500, -65.060300
2756000, -65.058685
2756500, -65.058369
2757000, -65.056717
2757500, -65.056365
2758000, -65.054679
2758500, -65.054294
2759000, -65.052578
2759500, -65.052163
2760000, -65.050421
2760500, -65.049980
2761000, -65.048213
2761500, -65.047749
2762000, -65.045962
2762500, -65.045477
2763000, -65.043673
2763500, -65.043171
2764000, -65.041352
2764500, -65.040835
2765000, -65.039004
2765500, -65.038476
2766000, -65.036636
2766500, -65.036099
2767000, -65.034252
2767500, -65.033709
2768000, -65.031858
2768500, -65.031311
2769000, -65.029459
2769500, -65.028910
2770000, -65.027059
2770500, -65.026511
2771000, -65.024663
2771500, -65.024118
2772000, -65.022274
2772500, -65.021734
2773000, -65.019898
2773500, -65.019365
2774000, -65.017538
2774500, -65.017014
2775000, -65.015198
2775500, -65.014684
2776000, -65.012881
2776500, -65.012380
2777000, -65.010591
2777500, -65.010104
2778000, -65.008330
2778500, -65.007859
2779000, -65.006103
2779500, -65.005648
2780000, -65.003910
2780500, -65.003474
2781000, -65.001756
2781500, -65.001339
2782000, -64.999643
2782500, -64.999247
2783000, -64.997572
2783500, -64.997196
2784000, -64.995542
2784500, -64.995186
2785000, -64.993554
2785500, -64.993218
2786000, -64.991608
2786500, -64.991293
2787000, -64.989706
2787500, -64.989413
2788000, -64.987848
2788500, -64.987578
2789000, -64.986037
2789500, -64.985789
2790000, -64.984273
2790500, -64.984049
2791000, -64.982558
2791500, -64.982359
2792000, -64.980893
2792500, -64.980719
2793000, -64.979280
2793500, -64.979131
2794000, -64.977718
2794500, -64.977595
2795000, -64.976209
2795500, -64.976113
2796000, -64.974755
2796500, -64.974684
2797000, -64.973354
2797500, -64.973311
2798000, -64.972008
2798500, -64.971992
2799000, -64.970718
2799500, -64.970728
2800000, -64.969482
2800500, -64.969520
2801000, -64.968303
2801500, -64.968368
2802000, -64.967178
2802500, -64.967271
2803000, -64.966110
2803500, -64.966229
2804000, -64.965096
2804500, -64.965243
2805000, -64.964138
2805500, -64.964312
2806000, -64.963235
2806500, -64.963435
2807000, -64.962386
2807500, -64.962613
2808000, -64.961591
2808500, -64.961844
2809000, -64.960849
2809500, -64.961128
2810000, -64.960159
2810500, -64.960464
2811000, -64.959522
2811500, -64.959851
2812000, -64.958936
2812500, -64.959290
2813000, -64.958399
2813500, -64.958778
2814000, -64.957912
2814500, -64.958314
2815000, -64.957474
2815500, -64.957899
2816000, -64.957082
2816500, -64.957530
2817000, -64.956737
2817500, -64.957207
2818000, -64.956437
2818500, -64.956929
2819000, -64.956181
2819500, -64.956694
2820000, -64.955968
2820500, -64.956501
2821000, -64.955796
2821500, -64.956348
2822000, -64.955664
2822500, -64.956236
2823000, -64.955571
2823500, -64.956162
2824000, -64.955516
2824500, -64.956124
2825000, -64.955497
2825500, -64.956123
2826000, -64.955513
2826500, -64.956155
2827000, -64.955563
2827500, -64.956221
2828000, -64.955645
2828500, -64.956318
2829000, -64.955758
2829500, -64.956445
2830000, -64.955900
2830500, -64.956601
2831000, -64.956071
2831500, -64.956785
2832000, -64.956268
2832500, -64.956994
2833000, -64.956490
2833500, -64.957228
2834000, -64.956737
2834500, -64.957485
2835000, -64.957006
2835500, -64.957765
2836000, -64.957296
2836500, -64.958064
2837000, -64.957606
2837500, -64.958383
2838000, -64.957934
2838500, -64.958720
2839000, -64.958280
2839500, -64.959073
2840000, -64.958642
2840500, -64.959442
2841000, -64.959018
2841500, -64.959825
2842000, -64.959408
2842500, -64.960220
2843000, -64.959810
2843500, -64.960627
2844000, -64.960222
2844500, -64.961044
2845000, -64.960645
2845500, -64.961470
2846000, -64.961076
2846500, -64.961905
2847000, -64.961514
2847500, -64.962346
2848000, -64.961959
2848500, -64.962793
2849000, -64.962409
2849500, -64.963245
2850000, -64.962863
2850500, -64.963700
2851000, -64.963321
2851500, -64.964159
2852000, -64.963781
2852500, -64.964619
2853000, -64.964242
2853500, -64.965079
2854000, -64.964703
2854500, -64.965540
2855000, -64.965164
2855500, -64.966000
2856000, -64.965623
2856500, -64.966458
2857000, -64.966081
2857500, -64.966913
2858000, -64.966535
2858500, -64.967366
2859000, -64.966986
2859500, -64.967814
2860000, -64.967432
2860500, -64.968257
2861000, -64.967874
2861500, -64.968695
2862000, -64.968309
2862500, -64.969127
2863000, -64.968739
2863500, -64.969553
2864000, -64.969161
2864500, -64.969971
2865000, -64.969576
2865500, -64.970382
2866000, -64.969984
2866500, -64.970785
2867000, -64.970383
2867500, -64.971179
2868000, -64.970773
2868500, -64.971564
2869000, -64.971154
2869500, -64.971940
2870000, -64.971525
2870500, -64.972306
2871000, -64.971887
2871500, -64.972662
2872000, -64.972238
2872500, -64.973008
2873000, -64.972579
2873500, -64.973343
2874000, -64.972910
2874500, -64.973667
2875000, -64.973229
2875500, -64.973981
2876000, -64.973537
2876500, -64.974283
2877000, -64.973835
2877500, -64.974574
2878000, -64.974120
2878500, -64.974853
2879000, -64.974394
2879500, -64.975121
2880000, -64.974657
2880500, -64.975378
2881000, -64.974908
2881500, -64.975622
2882000, -64.975148
2882500, -64.975855
2883000, -64.975375
2883500, -64.976077
2884000, -64.975591
2884500, -64.976287
2885000, -64.975796
2885500, -64.976485
2886000, -64.975989
2886500, -64.976672
2887000, -64.976170
2887500, -64.976847
2888000, -64.976340
2888500, -64.977011
2889000, -64.976499
2889500, -64.977164
2890000, -64.976647
2890500, -64.977305
2891000, -64.976784
2891500, -64.977436
2892000, -64.976910
2892500, -64.977556
2893000, -64.977025
2893500, -64.977665
2894000, -64.977129
2894500, -64.977764
2895000, -64.977224
2895500, -64.977853
2896000, -64.977308
2896500, -64.977932
2897000, -64.977383
2897500, -64.978001
2898000, -64.977447
2898500, -64.978061
2899000, -64.977503
2899500, -64.978111
2900000, -64.977549
2900500, -64.978153
2901000, -64.977587
2901500, -64.978185
2902000, -64.977615
2902500, -64.978209
2903000, -64.977636
2903500, -64.978225
2904000, -64.977648
2904500, -64.978233
2905000, -64.977653
2905500, -64.978233
2906000, -64.977650
2906500, -64.978226
2907000, -64.977639
2907500, -64.978212
2908000, -64.977622
2908500, -64.978191
2909000, -64.977598
2909500, -64.978163
2910000, -64.977568
2910500, -64.978130
2911000, -64.977532
2911500, -64.978090
2912000, -64.977490
2912500, -64.978045
2913000, -64.977442
2913500, -64.977994
2914000, -64.977390
2914500, -64.977938
2915000, -64.977332
2915500, -64.977878
2916000, -64.977270
2916500, -64.977813
2917000, -64.977203
2917500, -64.977743
2918000, -64.977132
2918500, -64.977670
2919000, -64.977058
2919500, -64.977593
2920000, -64.976980
2920500, -64.977513
2921000, -64.976898
2921500, -64.977430
2922000, -64.976814
2922500, -64.977344
2923000, -64.976727
2923500, -64.977255
2924000, -64.976638
2924500, -64.977164
2925000, -64.976546
2925500, -64.977071
2926000, -64.976453
2926500, -64.976977
2927000, -64.976358
2927500, -64.976880
2928000, -64.976261
2928500, -64.976782
2929000, -64.976163
2929500, -64.976683
2930000, -64.976064
2930500, -64.976584
2931000, -64.975965
2931500, -64.976483
2932000, -64.975864
2932500, -64.976382
2933000, -64.975764
2933500, -64.976281
2934000, -64.975663
2934500, -64.976179
2935000, -64.975562
2935500, -64.976078
2936000, -64.975461
2936500, -64.975977
2937000, -64.975361
2937500, -64.975876
2938000, -64.975261
2938500, -64.975776
2939000, -64.975162
2939500, -64.975677
2940000, -64.975063
2940500, -64.975579
2941000, -64.974966
2941500, -64.975482
2942000, -64.974870
2942500, -64.975386
2943000, -64.974775
2943500, -64.975291
2944000, -64.974681
2944500, -64.975198
2945000, -64.974589
2945500, -64.975106
2946000, -64.974499
2946500, -64.975016
2947000, -64.974410
2947500, -64.974927
2948000, -64.974323
2948500, -64.974841
2949000, -64.974238
2949500, -64.974756
2950000, -64.974155
2950500, -64.974674
2951000, -64.974074
2951500, -64.974593
2952000, -64.973995
2952500, -64.974515
2953000, -64.973918
2953500, -64.974439
2954000, -64.973844
2954500, -64.974365
2955000, -64.973771
2955500, -64.974293
2956000, -64.973701
2956500, -64.974224
2957000, -64.973634
2957500, -64.974157
2958000, -64.973569
2958500, -64.974093
2959000, -64.973506
2959500, -64.974031
2960000, -64.973446
2960500, -64.973971
2961000, -64.973388
2961500, -64.973914
2962000, -64.973333
2962500, -64.973860
2963000, -64.973280
2963500, -64.973808
2964000, -64.973229
2964500, -64.973758
2965000, -64.973181
2965500, -64.973711
2966000, -64.973136
2966500, -64.973666
2967000, -64.973093
2967500, -64.973624
2968000, -64.973052
2968500, -64.973584
2969000, -64.973014
2969500, -64.973547
2970000, -64.972979
2970500, -64.973512
2971000, -64.972945
2971500, -64.973479
2972000, -64.972914
2972500, -64.973449
2973000, -64.972885
2973500, -64.973421
2974000, -64.972859
2974500, -64.973395
2975000, -64.972835
2975500, -64.973371
2976000, -64.972813
2976500, -64.973350
2977000, -64.972793
2977500, -64.973331
2978000, -64.972775
2978500, -64.973314
2979000, -64.972759
2979500, -64.973298
2980000, -64.972746
2980500, -64.973285
2981000, -64.972734
2981500, -64.973274
2982000, -64.972724
2982500, -64.973264
2983000, -64.972716
2983500, -64.973257
2984000, -64.972710
2984500, -64.973251
2985000, -64.972705
2985500, -64.973247
2986000, -64.972702
2986500, -64.973244
2987000, -64.972701
2987500, -64.973243
2988000, -64.972701
2988500, -64.973244
2989000, -64.972703
2989500, -64.973246
2990000, -64.972706
2990500, -64.973249
2991000, -64.972710
2991500, -64.973254
2992000, -64.972716
2992500, -64.973260
2993000, -64.972723
2993500, -64.973267
2994000, -64.972731
2994500, -64.973275
2995000, -64.972741
2995500, -64.973285
2996000, -64.972751
2996500, -64.973295
2997000, -64.972763
2997500, -64.973307
2998000, -64.972775
2998500, -64.973319
2999000, -64.972788
2999500, -64.973332
3000000, -64.972802
