# ./result/hh_runge_0500.txt
# dt = 500 [usec]
# t [usec], V [mV]
0, -65.000000
500, -64.998509
1000, -64.997062
1500, -64.995653
2000, -64.994278
2500, -64.992932
3000, -64.991614
3500, -64.990320
4000, -64.989051
4500, -64.987803
5000, -64.986576
5500, -64.985370
6000, -64.984184
6500, -64.983018
7000, -64.981871
7500, -64.980743
8000, -64.979634
8500, -64.978544
9000, -64.977473
9500, -64.976421
10000, -64.975387
10500, -64.974373
11000, -64.973378
11500, -64.972401
12000, -64.971444
12500, -64.970506
13000, -64.969587
13500, -64.968687
14000, -64.967806
14500, -64.966945
15000, -64.966103
15500, -64.965280
16000, -64.964476
16500, -64.963692
17000, -64.962927
17500, -64.962181
18000, -64.961455
18500, -64.960747
19000, -64.960059
19500, -64.959390
20000, -64.958739
20500, -64.958108
21000, -64.957496
21500, -64.956902
22000, -64.956328
22500, -64.955772
23000, -64.955234
23500, -64.954715
24000, -64.954214
24500, -64.953732
25000, -64.953268
25500, -64.952821
26000, -64.952393
26500, -64.951982
27000, -64.951588
27500, -64.951213
28000, -64.950854
28500, -64.950512
29000, -64.950188
29500, -64.949880
30000, -64.949589
30500, -64.949314
31000, -64.949055
31500, -64.948813
32000, -64.948586
32500, -64.948375
33000, -64.948180
33500, -64.947999
34000, -64.947834
34500, -64.947684
35000, -64.947548
35500, -64.947427
36000, -64.947320
36500, -64.947226
37000, -64.947147
37500, -64.947081
38000, -64.947029
38500, -64.946990
39000, -64.946963
39500, -64.946950
40000, -64.946948
40500, -64.946959
41000, -64.946982
41500, -64.947016
42000, -64.947062
42500, -64.947120
43000, -64.947188
43500, -64.947267
44000, -64.947357
44500, -64.947456
45000, -64.947566
45500, -64.947686
46000, -64.947816
46500, -64.947954
47000, -64.948102
47500, -64.948259
48000, -64.948424
48500, -64.948598
49000, -64.948780
49500, -64.948969
50000, -64.949167
50500, -64.949372
51000, -64.949584
51500, -64.949803
52000, -64.950029
52500, -64.950261
53000, -64.950500
53500, -64.950744
54000, -64.950995
54500, -64.951251
55000, -64.951512
55500, -64.951779
56000, -64.952051
56500, -64.952327
57000, -64.952608
57500, -64.952893
58000, -64.953182
58500, -64.953475
59000, -64.953772
59500, -64.954073
60000, -64.954376
60500, -64.954683
61000, -64.954992
61500, -64.955304
62000, -64.955619
62500, -64.955936
63000, -64.956255
63500, -64.956575
64000, -64.956898
64500, -64.957222
65000, -64.957548
65500, -64.957874
66000, -64.958202
66500, -64.958531
67000, -64.958860
67500, -64.959190
68000, -64.959520
68500, -64.959850
69000, -64.960180
69500, -64.960510
70000, -64.960840
70500, -64.961170
71000, -64.961499
71500, -64.961827
72000, -64.962155
72500, -64.962481
73000, -64.962807
73500, -64.963131
74000, -64.963454
74500, -64.963775
75000, -64.964095
75500, -64.964413
76000, -64.964729
76500, -64.965044
77000, -64.965356
77500, -64.965666
78000, -64.965974
78500, -64.966279
79000, -64.966583
79500, -64.966883
80000, -64.967181
80500, -64.967476
81000, -64.967769
81500, -64.968058
82000, -64.968345
82500, -64.968628
83000, -64.968909
83500, -64.969186
84000, -64.969460
84500, -64.969731
85000, -64.969998
85500, -64.970262
86000, -64.970523
86500, -64.970780
87000, -64.971033
87500, -64.971283
88000, -64.971529
88500, -64.971771
89000, -64.972009
89500, -64.972244
90000, -64.972475
90500, -64.972702
91000, -64.972925
91500, -64.973145
92000, -64.973360
92500, -64.973571
93000, -64.973778
93500, -64.973982
94000, -64.974181
94500, -64.974376
95000, -64.974567
95500, -64.974754
96000, -64.974937
96500, -64.975116
97000, -64.975291
97500, -64.975461
98000, -64.975628
98500, -64.975791
99000, -64.975949
99500, -64.976103
100000, -64.976254
100500, -64.976400
101000, -64.976542
101500, -64.976680
102000, -64.976814
102500, -64.976944
103000, -64.977070
103500, -64.977192
104000, -64.977310
104500, -64.977424
105000, -64.977535
105500, -64.977641
106000, -64.977744
106500, -64.977842
107000, -64.977937
107500, -64.978028
108000, -64.978115
108500, -64.978199
109000, -64.978279
109500, -64.978355
110000, -64.978428
110500, -64.978497
111000, -64.978562
111500, -64.978624
112000, -64.978683
112500, -64.978738
113000, -64.978789
113500, -64.978838
114000, -64.978883
114500, -64.978924
115000, -64.978963
115500, -64.978998
116000, -64.979030
116500, -64.979059
117000, -64.979085
117500, -64.979109
118000, -64.979129
118500, -64.979146
119000, -64.979160
119500, -64.979172
120000, -64.979180
120500, -64.979187
121000, -64.979190
121500, -64.979191
122000, -64.979189
122500, -64.979185
123000, -64.979178
123500, -64.979169
124000, -64.979157
124500, -64.979143
125000, -64.979127
125500, -64.979109
126000, -64.979088
126500, -64.979066
127000, -64.979041
127500, -64.979014
128000, -64.978986
128500, -64.978955
129000, -64.978923
129500, -64.978888
130000, -64.978852
130500, -64.978815
131000, -64.978775
131500, -64.978734
132000, -64.978692
132500, -64.978648
133000, -64.978602
133500, -64.978555
134000, -64.978507
134500, -64.978457
135000, -64.978407
135500, -64.978354
136000, -64.978301
136500, -64.978247
137000, -64.978191
137500, -64.978135
138000, -64.978077
138500, -64.978019
139000, -64.977960
139500, -64.977899
140000, -64.977838
140500, -64.977777
141000, -64.977714
141500, -64.977651
142000, -64.977587
142500, -64.977523
143000, -64.977458
143500, -64.977392
144000, -64.977326
144500, -64.977260
145000, -64.977193
145500, -64.977126
146000, -64.977058
146500, -64.976990
147000, -64.976922
147500, -64.976854
148000, -64.976786
148500, -64.976717
149000, -64.976649
149500, -64.976580
150000, -64.976511
150500, -64.976442
151000, -64.976373
151500, -64.976305
152000, -64.976236
152500, -64.976168
153000, -64.976099
153500, -64.976031
154000, -64.975963
154500, -64.975895
155000, -64.975828
155500, -64.975760
156000, -64.975693
156500, -64.975627
157000, -64.975560
157500, -64.975495
158000, -64.975429
158500, -64.975364
159000, -64.975299
159500, -64.975235
160000, -64.975172
160500, -64.975108
161000, -64.975046
161500, -64.974984
162000, -64.974922
162500, -64.974861
163000, -64.974801
163500, -64.974741
164000, -64.974682
164500, -64.974624
165000, -64.974566
165500, -64.974509
166000, -64.974452
166500, -64.974397
167000, -64.974342
167500, -64.974287
168000, -64.974234
168500, -64.974181
169000, -64.974129
169500, -64.974078
170000, -64.974027
170500, -64.973977
171000, -64.973928
171500, -64.973880
172000, -64.973833
172500, -64.973786
173000, -64.973741
173500, -64.973696
174000, -64.973652
174500, -64.973609
175000, -64.973566
175500, -64.973525
176000, -64.973484
176500, -64.973444
177000, -64.973405
177500, -64.973367
178000, -64.973330
178500, -64.973293
179000, -64.973258
179500, -64.973223
180000, -64.973189
180500, -64.973156
181000, -64.973124
181500, -64.973093
182000, -64.973062
182500, -64.973033
183000, -64.973004
183500, -64.972976
184000, -64.972949
184500, -64.972922
185000, -64.972897
185500, -64.972872
186000, -64.972849
186500, -64.972826
187000, -64.972804
187500, -64.972782
188000, -64.972762
188500, -64.972742
189000, -64.972723
189500, -64.972705
190000, -64.972687
190500, -64.972671
191000, -64.972655
191500, -64.972640
192000, -64.972626
192500, -64.972612
193000, -64.972599
193500, -64.972587
194000, -64.972575
194500, -64.972565
195000, -64.972555
195500, -64.972545
196000, -64.972537
196500, -64.972529
197000, -64.972522
197500, -64.972515
198000, -64.972509
198500, -64.972504
199000, -64.972499
199500, -64.972495
200000, -64.972491
200500, -64.972488
201000, -64.972486
201500, -64.972484
202000, -64.972483
202500, -64.972483
203000, -64.972483
203500, -64.972483
204000, -64.972484
204500, -64.972486
205000, -64.972488
205500, -64.972490
206000, -64.972493
206500, -64.972497
207000, -64.972501
207500, -64.972505
208000, -64.972510
208500, -64.972515
209000, -64.972521
209500, -64.972527
210000, -64.972534
210500, -64.972541
211000, -64.972548
211500, -64.972556
212000, -64.972564
212500, -64.972572
213000, -64.972581
213500, -64.972590
214000, -64.972599
214500, -64.972609
215000, -64.972619
215500, -64.972629
216000, -64.972640
216500, -64.972651
217000, -64.972662
217500, -64.972673
218000, -64.972685
218500, -64.972696
219000, -64.972708
219500, -64.972721
220000, -64.972733
220500, -64.972746
221000, -64.972758
221500, -64.972771
222000, -64.972784
222500, -64.972798
223000, -64.972811
223500, -64.972825
224000, -64.972838
224500, -64.972852
225000, -64.972866
225500, -64.972880
226000, -64.972894
226500, -64.972908
227000, -64.972923
227500, -64.972937
228000, -64.972951
228500, -64.972966
229000, -64.972980
229500, -64.972995
230000, -64.973009
230500, -64.973024
231000, -64.973038
231500, -64.973053
232000, -64.973068
232500, -64.973082
233000, -64.973097
233500, -64.973111
234000, -64.973126
234500, -64.973140
235000, -64.973155
235500, -64.973169
236000, -64.973184
236500, -64.973198
237000, -64.973212
237500, -64.973226
238000, -64.973241
238500, -64.973255
239000, -64.973269
239500, -64.973283
240000, -64.973296
240500, -64.973310
241000, -64.973324
241500, -64.973337
242000, -64.973351
242500, -64.973364
243000, -64.973377
243500, -64.973390
244000, -64.973403
244500, -64.973416
245000, -64.973429
245500, -64.973441
246000, -64.973454
246500, -64.973466
247000, -64.973478
247500, -64.973490
248000, -64.973502
248500, -64.973514
249000, -64.973525
249500, -64.973537
250000, -64.973548
250500, -64.973559
251000, -64.973570
251500, -64.973581
252000, -64.973591
252500, -64.973602
253000, -64.973612
253500, -64.973622
254000, -64.973632
254500, -64.973642
255000, -64.973651
255500, -64.973661
256000, -64.973670
256500, -64.973679
257000, -64.973688
257500, -64.973697
258000, -64.973705
258500, -64.973713
259000, -64.973722
259500, -64.973730
260000, -64.973737
260500, -64.973745
261000, -64.973752
261500, -64.973760
262000, -64.973767
262500, -64.973774
263000, -64.973780
263500, -64.973787
264000, -64.973793
264500, -64.973799
265000, -64.973805
265500, -64.973811
266000, -64.973817
266500, -64.973822
267000, -64.973828
267500, -64.973833
268000, -64.973838
268500, -64.973843
269000, -64.973847
269500, -64.973852
270000, -64.973856
270500, -64.973860
271000, -64.973864
271500, -64.973868
272000, -64.973871
272500, -64.973875
273000, -64.973878
273500, -64.973881
274000, -64.973884
274500, -64.973887
275000, -64.973890
275500, -64.973892
276000, -64.973895
276500, -64.973897
277000, -64.973899
277500, -64.973901
278000, -64.973903
278500, -64.973904
279000, -64.973906
279500, -64.973907
280000, -64.973908
280500, -64.973909
281000, -64.973910
281500, -64.973911
282000, -64.973912
282500, -64.973913
283000, -64.973913
283500, -64.973913
284000, -64.973914
284500, -64.973914
285000, -64.973914
285500, -64.973914
286000, -64.973914
286500, -64.973913
287000, -64.973913
287500, -64.973912
288000, -64.973912
288500, -64.973911
289000, -64.973910
289500, -64.973909
290000, -64.973908
290500, -64.973907
291000, -64.973906
291500, -64.973905
292000, -64.973903
292500, -64.973902
293000, -64.973900
293500, -64.973899
294000, -64.973897
294500, -64.973895
295000, -64.973893
295500, -64.973892
296000, -64.973890
296500, -64.973888
297000, -64.973886
297500, -64.973883
298000, -64.973881
298500, -64.973879
299000, -64.973877
299500, -64.973874
300000, -64.973872
300500, -64.973870
301000, -64.973867
301500, -64.973865
302000, -64.973862
302500, -64.973859
303000, -64.973857
303500, -64.973854
304000, -64.973851
304500, -64.973849
305000, -64.973846
305500, -64.973843
306000, -64.973840
306500, -64.973837
307000, -64.973835
307500, -64.973832
308000, -64.973829
308500, -64.973826
309000, -64.973823
309500, -64.973820
310000, -64.973817
310500, -64.973814
311000, -64.973811
311500, -64.973808
312000, -64.973805
312500, -64.973802
313000, -64.973799
313500, -64.973796
314000, -64.973793
314500, -64.973790
315000, -64.973787
315500, -64.973784
316000, -64.973781
316500, -64.973778
317000, -64.973775
317500, -64.973772
318000, -64.973769
318500, -64.973766
319000, -64.973764
319500, -64.973761
320000, -64.973758
320500, -64.973755
321000, -64.973752
321500, -64.973749
322000, -64.973746
322500, -64.973744
323000, -64.973741
323500, -64.973738
324000, -64.973735
324500, -64.973733
325000, -64.973730
325500, -64.973727
326000, -64.973725
326500, -64.973722
327000, -64.973719
327500, -64.973717
328000, -64.973714
328500, -64.973712
329000, -64.973709
329500, -64.973707
330000, -64.973705
330500, -64.973702
331000, -64.973700
331500, -64.973697
332000, -64.973695
332500, -64.973693
333000, -64.973691
333500, -64.973689
334000, -64.973686
334500, -64.973684
335000, -64.973682
335500, -64.973680
336000, -64.973678
336500, -64.973676
337000, -64.973674
337500, -64.973672
338000, -64.973671
338500, -64.973669
339000, -64.973667
339500, -64.973665
340000, -64.973664
340500, -64.973662
341000, -64.973660
341500, -64.973659
342000, -64.973657
342500, -64.973656
343000, -64.973654
343500, -64.973653
344000, -64.973651
344500, -64.973650
345000, -64.973649
345500, -64.973647
346000, -64.973646
346500, -64.973645
347000, -64.973644
347500, -64.973642
348000, -64.973641
348500, -64.973640
349000, -64.973639
349500, -64.973638
350000, -64.973637
350500, -64.973636
351000, -64.973635
351500, -64.973635
352000, -64.973634
352500, -64.973633
353000, -64.973632
353500, -64.973631
354000, -64.973631
354500, -64.973630
355000, -64.973629
355500, -64.973629
356000, -64.973628
356500, -64.973628
357000, -64.973627
357500, -64.973627
358000, -64.973626
358500, -64.973626
359000, -64.973626
359500, -64.973625
360000, -64.973625
360500, -64.973625
361000, -64.973624
361500, -64.973624
362000, -64.973624
362500, -64.973624
363000, -64.973624
363500, -64.973624
364000, -64.973623
364500, -64.973623
365000, -64.973623
365500, -64.973623
366000, -64.973623
366500, -64.973623
367000, -64.973623
367500, -64.973623
368000, -64.973624
368500, -64.973624
369000, -64.973624
369500, -64.973624
370000, -64.973624
370500, -64.973624
371000, -64.973625
371500, -64.973625
372000, -64.973625
372500, -64.973625
373000, -64.973626
373500, -64.973626
374000, -64.973626
374500, -64.973627
375000, -64.973627
375500, -64.973627
376000, -64.973628
376500, -64.973628
377000, -64.973629
377500, -64.973629
378000, -64.973629
378500, -64.973630
379000, -64.973630
379500, -64.973631
380000, -64.973631
380500, -64.973632
381000, -64.973632
381500, -64.973633
382000, -64.973633
382500, -64.973634
383000, -64.973635
383500, -64.973635
384000, -64.973636
384500, -64.973636
385000, -64.973637
385500, -64.973637
386000, -64.973638
386500, -64.973639
387000, -64.973639
387500, -64.973640
388000, -64.973641
388500, -64.973641
389000, -64.973642
389500, -64.973642
390000, -64.973643
390500, -64.973644
391000, -64.973644
391500, -64.973645
392000, -64.973646
392500, -64.973646
393000, -64.973647
393500, -64.973648
394000, -64.973648
394500, -64.973649
395000, -64.973650
395500, -64.973650
396000, -64.973651
396500, -64.973651
397000, -64.973652
397500, -64.973653
398000, -64.973653
398500, -64.973654
399000, -64.973655
399500, -64.973655
400000, -64.973656
400500, -64.973657
401000, -64.973657
401500, -64.973658
402000, -64.973658
402500, -64.973659
403000, -64.973660
403500, -64.973660
404000, -64.973661
404500, -64.973662
405000, -64.973662
405500, -64.973663
406000, -64.973663
406500, -64.973664
407000, -64.973665
407500, -64.973665
408000, -64.973666
408500, -64.973666
409000, -64.973667
409500, -64.973667
410000, -64.973668
410500, -64.973668
411000, -64.973669
411500, -64.973669
412000, -64.973670
412500, -64.973671
413000, -64.973671
413500, -64.973672
414000, -64.973672
414500, -64.973672
415000, -64.973673
415500, -64.973673
416000, -64.973674
416500, -64.973674
417000, -64.973675
417500, -64.973675
418000, -64.973676
418500, -64.973676
419000, -64.973677
419500, -64.973677
420000, -64.973677
420500, -64.973678
421000, -64.973678
421500, -64.973678
422000, -64.973679
422500, -64.973679
423000, -64.973680
423500, -64.973680
424000, -64.973680
424500, -64.973681
425000, -64.973681
425500, -64.973681
426000, -64.973681
426500, -64.973682
427000, -64.973682
427500, -64.973682
428000, -64.973683
428500, -64.973683
429000, -64.973683
429500, -64.973683
430000, -64.973684
430500, -64.973684
431000, -64.973684
431500, -64.973684
432000, -64.973685
432500, -64.973685
433000, -64.973685
433500, -64.973685
434000, -64.973685
434500, -64.973686
435000, -64.973686
435500, -64.973686
436000, -64.973686
436500, -64.973686
437000, -64.973686
437500, -64.973686
438000, -64.973687
438500, -64.973687
439000, -64.973687
439500, -64.973687
440000, -64.973687
440500, -64.973687
441000, -64.973687
441500, -64.973687
442000, -64.973687
442500, -64.973687
443000, -64.973687
443500, -64.973687
444000, -64.973688
444500, -64.973688
445000, -64.973688
445500, -64.973688
446000, -64.973688
446500, -64.973688
447000, -64.973688
447500, -64.973688
448000, -64.973688
448500, -64.973688
449000, -64.973688
449500, -64.973688
450000, -64.973688
450500, -64.973688
451000, -64.973688
451500, -64.973688
452000, -64.973688
452500, -64.973688
453000, -64.973688
453500, -64.973688
454000, -64.973687
454500, -64.973687
455000, -64.973687
455500, -64.973687
456000, -64.973687
456500, -64.973687
457000, -64.973687
457500, -64.973687
458000, -64.973687
458500, -64.973687
459000, -64.973687
459500, -64.973687
460000, -64.973687
460500, -64.973687
461000, -64.973686
461500, -64.973686
462000, -64.973686
462500, -64.973686
463000, -64.973686
463500, -64.973686
464000, -64.973686
464500, -64.973686
465000, -64.973686
465500, -64.973686
466000, -64.973685
466500, -64.973685
467000, -64.973685
467500, -64.973685
468000, -64.973685
468500, -64.973685
469000, -64.973685
469500, -64.973685
470000, -64.973685
470500, -64.973684
471000, -64.973684
471500, -64.973684
472000, -64.973684
472500, -64.973684
473000, -64.973684
473500, -64.973684
474000, -64.973684
474500, -64.973683
475000, -64.973683
475500, -64.973683
476000, -64.973683
476500, -64.973683
477000, -64.973683
477500, -64.973683
478000, -64.973683
478500, -64.973682
479000, -64.973682
479500, -64.973682
480000, -64.973682
480500, -64.973682
481000, -64.973682
481500, -64.973682
482000, -64.973682
482500, -64.973681
483000, -64.973681
483500, -64.973681
484000, -64.973681
484500, -64.973681
485000, -64.973681
485500, -64.973681
486000, -64.973681
486500, -64.973680
487000, -64.973680
487500, -64.973680
488000, -64.973680
488500, -64.973680
489000, -64.973680
489500, -64.973680
490000, -64.973680
490500, -64.973680
491000, -64.973679
491500, -64.973679
492000, -64.973679
492500, -64.973679
493000, -64.973679
493500, -64.973679
494000, -64.973679
494500, -64.973679
495000, -64.973679
495500, -64.973678
496000, -64.973678
496500, -64.973678
497000, -64.973678
497500, -64.973678
498000, -64.973678
498500, -64.973678
499000, -64.973678
499500, -64.973678
500000, -64.973678
500500, -62.625213
501000, -60.348369
501500, -58.127801
502000, -55.953324
502500, -53.800926
503000, -51.645068
503500, -49.437889
504000, -47.118310
504500, -44.585953
505000, -41.700706
505500, -38.241763
506000, -33.882601
506500, -28.114809
507000, -20.200734
507500, -9.208889
508000, 5.370960
508500, 21.851527
509000, 35.219105
509500, 41.712168
510000, 43.118403
510500, 42.634665
511000, 41.582915
511500, 40.243056
512000, 38.671105
512500, 36.902186
513000, 34.958269
513500, 32.867696
514000, 30.649987
514500, 28.331551
515000, 25.929523
515500, 23.467307
516000, 20.958586
516500, 18.422930
517000, 15.870044
517500, 13.315570
518000, 10.765387
518500, 8.231571
519000, 5.716726
519500, 3.229937
520000, 0.771198
520500, -1.652723
521000, -4.043877
521500, -6.397057
522000, -8.716047
522500, -10.996919
523000, -13.244117
523500, -15.455405
524000, -17.636464
524500, -19.785692
525000, -21.910124
525500, -24.009910
526000, -26.094247
526500, -28.166130
527000, -30.237722
527500, -32.315128
528000, -34.414283
528500, -36.545362
529000, -38.728294
529500, -40.976642
530000, -43.312235
530500, -45.747652
531000, -48.298182
531500, -50.960827
532000, -53.723087
532500, -56.537369
533000, -59.331736
533500, -61.995592
534000, -64.411131
534500, -66.466030
535000, -68.102770
535500, -69.316576
536000, -70.160561
536500, -70.705997
537000, -71.033964
537500, -71.206226
538000, -71.276375
538500, -71.275619
539000, -71.231485
539500, -71.155596
540000, -71.061817
540500, -70.952663
541000, -70.836080
541500, -70.710797
542000, -70.582354
542500, -70.447961
543000, -70.312190
543500, -70.171642
544000, -70.030491
544500, -69.885093
545000, -69.739456
545500, -69.589830
546000, -69.440154
546500, -69.286641
547000, -69.133198
547500, -68.976024
548000, -68.819012
548500, -68.658352
549000, -68.497929
549500, -68.333938
550000, -68.170263
550500, -68.003103
551000, -67.836341
551500, -67.666176
552000, -67.496485
552500, -67.323476
553000, -67.151029
553500, -66.975360
554000, -66.800349
554500, -66.622208
555000, -66.444809
555500, -66.264376
556000, -66.084786
556500, -65.902273
557000, -65.720704
557500, -65.536304
558000, -65.352940
558500, -65.166850
559000, -64.981904
559500, -64.794349
560000, -64.608030
560500, -64.419184
561000, -64.231668
561500, -64.041730
562000, -63.853234
562500, -63.662410
563000, -63.473092
563500, -63.281523
564000, -63.091547
564500, -62.899422
565000, -62.708972
565500, -62.516419
566000, -62.325582
566500, -62.132706
567000, -61.941620
567500, -61.748566
568000, -61.557317
568500, -61.364096
569000, -61.172700
569500, -60.979375
570000, -60.787923
570500, -60.594524
571000, -60.402926
571500, -60.209349
572000, -60.017567
572500, -59.823824
573000, -59.631810
573500, -59.437695
574000, -59.245203
574500, -59.050542
575000, -58.857463
575500, -58.662102
576000, -58.468102
576500, -58.271619
577000, -58.076342
577500, -57.878469
578000, -57.681611
578500, -57.481833
579000, -57.282738
579500, -57.080456
580000, -56.878633
580500, -56.673310
581000, -56.467957
581500, -56.258600
582000, -56.048777
582500, -55.834571
583000, -55.619346
583500, -55.398965
584000, -55.176808
584500, -54.948815
585000, -54.718339
585500, -54.481009
586000, -54.239964
586500, -53.990922
587000, -53.737060
587500, -53.473666
588000, -53.203522
588500, -52.921990
589000, -52.631718
589500, -52.327477
590000, -52.011480
590500, -51.678495
591000, -51.329920
591500, -50.959669
592000, -50.568890
592500, -50.150291
593000, -49.703841
593500, -49.221061
594000, -48.700113
594500, -48.130486
595000, -47.507795
595500, -46.818067
596000, -46.052753
596500, -45.192870
597000, -44.222686
597500, -43.114318
598000, -41.841058
598500, -40.360654
599000, -38.628106
599500, -36.579048
600000, -34.142778
600500, -31.227951
601000, -27.742806
601500, -23.595877
602000, -18.743734
602500, -13.232335
603000, -7.283971
603500, -1.326775
604000, 4.049725
604500, 8.300543
605000, 11.122033
605500, 12.534766
606000, 12.765147
606500, 12.109666
607000, 10.823981
607500, 9.108298
608000, 7.098832
608500, 4.897331
609000, 2.569560
609500, 0.168953
610000, -2.271928
610500, -4.723224
611000, -7.169577
611500, -9.593773
612000, -11.990186
612500, -14.348740
613000, -16.669801
613500, -18.948003
614000, -21.186917
614500, -23.384995
615000, -25.549316
615500, -27.681131
616000, -29.790621
616500, -31.882462
617000, -33.970358
617500, -36.062424
618000, -38.175586
618500, -40.320380
619000, -42.514573
619500, -44.767337
620000, -47.091677
620500, -49.486749
621000, -51.947724
621500, -54.447645
622000, -56.945964
622500, -59.375394
623000, -61.659284
623500, -63.712042
624000, -65.470753
624500, -66.896406
625000, -67.994289
625500, -68.792909
626000, -69.345234
626500, -69.701221
627000, -69.913187
627500, -70.017400
628000, -70.047916
628500, -70.023402
629000, -69.963271
629500, -69.874966
630000, -69.769699
630500, -69.649117
631000, -69.520405
631500, -69.382451
632000, -69.240549
632500, -69.092307
633000, -68.942143
633500, -68.787066
634000, -68.631080
634500, -68.470920
635000, -68.310394
635500, -68.146106
636000, -67.981773
636500, -67.813936
637000, -67.646258
637500, -67.475252
638000, -67.304558
638500, -67.130679
639000, -66.957245
639500, -66.780755
640000, -66.604823
640500, -66.425945
641000, -66.247736
641500, -66.066698
642000, -65.886446
642500, -65.703478
643000, -65.521397
643500, -65.336705
644000, -65.153009
644500, -64.966822
645000, -64.781747
645500, -64.594283
646000, -64.408023
646500, -64.219479
647000, -64.032248
647500, -63.842853
648000, -63.654868
648500, -63.464797
649000, -63.276221
649500, -63.085658
650000, -62.896695
650500, -62.705837
651000, -62.516637
651500, -62.325599
652000, -62.136291
652500, -61.945232
653000, -61.755980
653500, -61.565013
654000, -61.375863
654500, -61.185036
655000, -60.996079
655500, -60.805512
656000, -60.616816
656500, -60.426464
657000, -60.237968
657500, -60.047829
658000, -59.859573
658500, -59.669650
659000, -59.481514
659500, -59.291629
660000, -59.103481
660500, -58.913565
661000, -58.725331
661500, -58.535182
662000, -58.346541
662500, -58.155861
663000, -57.966597
663500, -57.775211
664000, -57.585029
664500, -57.392435
665000, -57.200814
665500, -57.006601
666000, -56.813219
666500, -56.616948
667000, -56.421069
667500, -56.221932
668000, -56.022873
668500, -55.820295
669000, -55.617351
669500, -55.410261
670000, -55.202232
670500, -54.989556
671000, -54.775473
671500, -54.556010
672000, -54.334179
672500, -54.106098
673000, -53.874844
673500, -53.636374
674000, -53.393418
674500, -53.141825
675000, -52.884390
675500, -52.616782
676000, -52.341314
676500, -52.053420
677000, -51.755441
677500, -51.442275
678000, -51.115593
678500, -50.770142
679000, -50.406967
679500, -50.019854
680000, -49.609375
680500, -49.168057
681000, -48.695060
681500, -48.181572
682000, -47.624782
682500, -47.013488
683000, -46.342133
683500, -45.595601
684000, -44.763367
684500, -43.824844
685000, -42.762102
685500, -41.545036
686000, -40.143883
686500, -38.514284
687000, -36.609267
687500, -34.365052
688000, -31.715448
688500, -28.582708
689000, -24.902725
689500, -20.633872
690000, -15.809557
690500, -10.572149
691000, -5.225160
691500, -0.200751
692000, 4.031351
692500, 7.132866
693000, 8.984531
693500, 9.684415
694000, 9.438914
694500, 8.482737
695000, 7.012938
695500, 5.188162
696000, 3.119152
696500, 0.892103
697000, -1.436494
697500, -3.819833
698000, -6.229615
698500, -8.639654
699000, -11.037053
699500, -13.406863
700000, -15.745186
700500, -18.043879
701000, -20.303994
701500, -22.522395
702000, -24.704198
702500, -26.849485
703000, -28.966909
703500, -31.060207
704000, -33.141846
704500, -35.219167
705000, -37.307628
705500, -39.417004
706000, -41.564204
706500, -43.758710
707000, -46.014381
707500, -48.333554
708000, -50.716469
708500, -53.144585
709000, -55.589518
709500, -57.996764
710000, -60.302388
710500, -62.425768
711000, -64.299357
711500, -65.870474
712000, -67.124989
712500, -68.073967
713000, -68.758348
713500, -69.223097
714000, -69.520206
714500, -69.688966
715000, -69.767016
715500, -69.777071
716000, -69.741540
716500, -69.670711
717000, -69.577519
717500, -69.465330
718000, -69.342144
718500, -69.207875
719000, -69.068120
719500, -68.921138
720000, -68.771378
720500, -68.616311
721000, -68.459836
721500, -68.299050
722000, -68.137591
722500, -67.972373
723000, -67.806902
723500, -67.638001
724000, -67.469107
724500, -67.297004
725000, -67.125096
725500, -66.950152
726000, -66.775555
726500, -66.598057
727000, -66.421029
727500, -66.241228
728000, -66.062020
728500, -65.880166
729000, -65.699021
729500, -65.515338
730000, -65.332472
730500, -65.147183
731000, -64.962830
731500, -64.776176
732000, -64.590560
732500, -64.402740
733000, -64.216062
733500, -64.027294
734000, -63.839787
734500, -63.650290
735000, -63.462133
735500, -63.272076
736000, -63.083456
736500, -62.893046
737000, -62.704163
737500, -62.513553
738000, -62.324529
738500, -62.133853
739000, -61.944848
739500, -61.754275
740000, -61.565408
740500, -61.374989
741000, -61.186314
741500, -60.996145
742000, -60.807786
742500, -60.617942
743000, -60.429864
743500, -60.240291
744000, -60.052497
744500, -59.863241
745000, -59.675743
745500, -59.486697
746000, -59.299330
746500, -59.110371
747000, -58.923071
747500, -58.734137
748000, -58.546724
748500, -58.357511
749000, -58.169697
749500, -57.980001
750000, -57.791632
750500, -57.601189
751000, -57.411790
751500, -57.220095
752000, -57.029269
752500, -56.836014
753000, -56.643363
753500, -56.447881
754000, -56.252640
754500, -56.054269
755000, -55.855885
755500, -55.653988
756000, -55.451507
756500, -55.244957
757000, -55.037335
757500, -54.825213
758000, -54.611383
758500, -54.392180
759000, -54.170425
759500, -53.942528
760000, -53.711267
760500, -53.472715
761000, -53.229427
761500, -52.977561
762000, -52.719676
762500, -52.451465
763000, -52.175086
763500, -51.886291
764000, -51.587006
764500, -51.272345
765000, -50.943830
765500, -50.596409
766000, -50.230695
766500, -49.840837
767000, -49.426875
767500, -48.981664
768000, -48.504202
768500, -47.985585
769000, -47.422889
769500, -46.804797
770000, -46.125196
770500, -45.369405
771000, -44.526272
771500, -43.575134
772000, -42.497557
772500, -41.263504
773000, -39.842923
773500, -38.191634
774000, -36.262760
774500, -33.993668
775000, -31.319913
775500, -28.167978
776000, -24.479841
776500, -20.224364
777000, -15.446479
777500, -10.300829
778000, -5.094151
778500, -0.247461
779000, 3.796168
779500, 6.728601
780000, 8.450261
780500, 9.061744
781000, 8.762055
781500, 7.774919
782000, 6.289095
782500, 4.457321
783000, 2.387372
783500, 0.163247
784000, -2.159453
784500, -4.534907
785000, -6.935292
785500, -9.334864
786000, -11.720975
786500, -14.079282
787000, -16.405459
787500, -18.692248
788000, -20.940722
788500, -23.147699
789000, -25.318638
789500, -27.454431
790000, -29.563899
790500, -31.651375
791000, -33.729248
791500, -35.805297
792000, -37.894969
792500, -40.008379
793000, -42.162074
793500, -44.365250
794000, -46.630246
794500, -48.957497
795000, -51.344672
795500, -53.768993
796000, -56.197424
796500, -58.571913
797000, -60.825252
797500, -62.879123
798000, -64.670784
798500, -66.155556
799000, -67.327616
799500, -68.204600
800000, -68.830295
800500, -69.250018
801000, -69.513757
801500, -69.658630
802000, -69.719677
802500, -69.717872
803000, -69.673872
803500, -69.597102
804000, -69.499485
804500, -69.384096
805000, -69.258338
805500, -69.122121
806000, -68.980645
806500, -68.832297
807000, -68.681218
807500, -68.525067
808000, -68.367478
808500, -68.205764
809000, -68.043312
809500, -67.877264
810000, -67.710881
810500, -67.541220
811000, -67.371479
811500, -67.198680
812000, -67.025990
812500, -66.850412
813000, -66.675091
813500, -66.497015
814000, -66.319323
814500, -66.139006
815000, -65.959200
815500, -65.776895
816000, -65.595211
816500, -65.411135
817000, -65.227794
817500, -65.042181
818000, -64.857424
818500, -64.670508
819000, -64.484542
819500, -64.296521
820000, -64.109561
820500, -63.920663
821000, -63.732936
821500, -63.543361
822000, -63.355038
822500, -63.164963
823000, -62.976244
823500, -62.785882
824000, -62.596947
824500, -62.406422
825000, -62.217393
825500, -62.026857
826000, -61.837909
826500, -61.647511
827000, -61.458715
827500, -61.268500
828000, -61.079936
828500, -60.890019
829000, -60.701787
829500, -60.512183
830000, -60.324239
830500, -60.134928
831000, -59.947300
831500, -59.758323
832000, -59.570968
832500, -59.382171
833000, -59.194937
833500, -59.006233
834000, -58.819087
834500, -58.630373
835000, -58.443033
835500, -58.253990
836000, -58.066221
836500, -57.876684
837000, -57.688286
837500, -57.497874
838000, -57.308352
838500, -57.116625
839000, -56.925637
839500, -56.732257
840000, -56.539279
840500, -56.343518
841000, -56.147832
841500, -55.949094
842000, -55.750144
842500, -55.547661
843000, -55.344372
843500, -55.137040
844000, -54.928450
844500, -54.715315
845000, -54.500169
845500, -54.279604
846000, -54.056232
846500, -53.826709
847000, -53.593404
847500, -53.352654
848000, -53.106810
848500, -52.852276
849000, -52.591160
849500, -52.319418
850000, -52.039000
850500, -51.745897
851000, -51.441513
851500, -51.121212
852000, -50.786298
852500, -50.431573
853000, -50.057432
853500, -49.658232
854000, -49.233289
854500, -48.775647
855000, -48.283475
855500, -47.748001
856000, -47.165300
856500, -46.524089
857000, -45.816993
857500, -45.028734
858000, -44.147084
858500, -43.149998
859000, -42.016989
859500, -40.716145
860000, -39.214290
860500, -37.464361
861000, -35.416017
861500, -33.003955
862000, -30.162076
862500, -26.819503
863000, -22.928122
863500, -18.479093
864000, -13.556775
864500, -8.368640
865000, -3.271415
865500, 1.295859
866000, 4.927149
866500, 7.392507
867000, 8.672226
867500, 8.915424
868000, 8.334228
868500, 7.143155
869000, 5.514822
869500, 3.585969
870000, 1.452221
870500, -0.811780
871000, -3.156778
871500, -5.541929
872000, -7.942700
872500, -10.336163
873000, -12.711443
873500, -15.055932
874000, -17.366239
874500, -19.636344
875000, -21.867961
875500, -24.058910
876000, -26.214942
876500, -28.338034
877000, -30.437563
877500, -32.518818
878000, -34.594641
878500, -36.673618
879000, -38.771389
879500, -40.898424
880000, -43.070727
880500, -45.296713
881000, -47.586459
881500, -49.937220
882000, -52.341434
882500, -54.769872
883000, -57.181663
883500, -59.512139
884000, -61.690311
884500, -63.640244
885000, -65.307728
885500, -66.661520
886000, -67.708494
886500, -68.476037
887000, -69.012047
887500, -69.362210
888000, -69.573781
888500, -69.680683
889000, -69.714353
889500, -69.693116
890000, -69.635171
890500, -69.548507
891000, -69.443638
891500, -69.323020
892000, -69.193256
892500, -69.054072
893000, -68.910170
893500, -68.759964
894000, -68.607245
894500, -68.449801
895000, -68.290983
895500, -68.128279
896000, -67.964826
896500, -67.797964
897000, -67.630719
897500, -67.460355
898000, -67.289848
898500, -67.116430
899000, -66.943049
899500, -66.766921
900000, -66.590969
900500, -66.412401
901000, -66.234137
901500, -66.053387
902000, -65.873069
902500, -65.690384
903000, -65.508237
903500, -65.323835
904000, -65.140087
904500, -64.954206
905000, -64.769097
905500, -64.581960
906000, -64.395691
906500, -64.207501
907000, -64.020293
907500, -63.831285
908000, -63.643356
908500, -63.453709
909000, -63.265227
909500, -63.075129
910000, -62.886305
910500, -62.695957
911000, -62.506942
911500, -62.316464
912000, -62.127395
912500, -61.936952
913000, -61.747996
913500, -61.557703
914000, -61.368914
914500, -61.178830
915000, -60.990304
915500, -60.800551
916000, -60.612362
916500, -60.422907
917000, -60.235006
917500, -60.045854
918000, -59.858288
918500, -59.669452
919000, -59.482112
919500, -59.293427
920000, -59.106194
920500, -58.917602
921000, -58.730416
921500, -58.541733
922000, -58.354292
922500, -58.165237
923000, -57.977340
923500, -57.787762
924000, -57.599147
924500, -57.408573
925000, -57.218743
925500, -57.026783
926000, -56.835434
926500, -56.641696
927000, -56.448168
927500, -56.251894
928000, -56.055532
928500, -55.856178
929000, -55.656355
929500, -55.452980
930000, -55.248585
930500, -55.040158
931000, -54.830284
931500, -54.615756
932000, -54.398922
932500, -54.176603
933000, -53.951215
933500, -53.719557
934000, -53.483705
934500, -53.240229
935000, -52.991285
935500, -52.733479
936000, -52.468502
936500, -52.192542
937000, -51.907348
937500, -51.608929
938000, -51.298398
938500, -50.971329
939000, -50.628735
939500, -50.265301
940000, -49.881188
940500, -49.470625
941000, -49.032497
941500, -48.559972
942000, -48.050304
942500, -47.494779
943000, -46.888350
943500, -46.219376
944000, -45.479383
944500, -44.651904
945000, -43.722963
945500, -42.669092
946000, -41.467287
946500, -40.082886
947000, -38.479438
947500, -36.606084
948000, -34.408305
948500, -31.817700
949000, -28.767242
949500, -25.191137
950000, -21.056634
950500, -16.387330
951000, -11.319357
951500, -6.124060
952000, -1.207286
952500, 2.991052
953000, 6.127268
953500, 8.066138
954000, 8.869706
954500, 8.727503
955000, 7.856489
955500, 6.457210
956000, 4.683840
956500, 2.656563
957000, 0.458492
957500, -1.845236
958000, -4.211869
958500, -6.605717
959000, -9.005628
959500, -11.391582
960000, -13.754649
960500, -16.083963
961000, -18.377246
961500, -20.629692
962000, -22.843721
962500, -25.018218
963000, -27.159445
963500, -29.270443
964000, -31.361203
964500, -33.438004
965000, -35.514195
965500, -37.599153
966000, -39.708672
966500, -41.853424
967000, -44.048626
967500, -46.301455
968000, -48.619019
968500, -50.994467
969000, -53.413964
969500, -55.840523
970000, -58.225066
970500, -60.496608
971000, -62.582484
971500, -64.412163
972000, -65.942881
972500, -67.158197
973000, -68.077427
973500, -68.736177
974000, -69.184846
974500, -69.468164
975000, -69.630084
975500, -69.701035
976000, -69.708840
976500, -69.669235
977000, -69.598084
977500, -69.502018
978000, -69.390234
978500, -69.264608
979000, -69.130995
979500, -68.988946
980000, -68.842701
980500, -68.690694
981000, -68.536389
981500, -68.377690
982000, -68.217685
982500, -68.054024
983000, -67.889610
983500, -67.721964
984000, -67.553893
984500, -67.382857
985000, -67.211620
985500, -67.037613
986000, -66.863577
986500, -66.686925
987000, -66.510377
987500, -66.331344
988000, -66.152543
988500, -65.971385
989000, -65.790585
989500, -65.607542
990000, -65.424962
990500, -65.240255
991000, -65.056128
991500, -64.869997
992000, -64.684558
992500, -64.497214
993000, -64.310662
993500, -64.122317
994000, -63.934880
994500, -63.745764
995000, -63.557643
995500, -63.367927
996000, -63.179300
996500, -62.989182
997000, -62.800262
997500, -62.609927
998000, -62.420840
998500, -62.230408
999000, -62.041305
999500, -61.850950
1000000, -61.661981
1000500, -61.471781
1001000, -61.282995
1001500, -61.093026
1002000, -60.904534
1002500, -60.714901
1003000, -60.526727
1003500, -60.337388
1004000, -60.149508
1004500, -59.960487
1005000, -59.772947
1005500, -59.584212
1006000, -59.396859
1006500, -59.208254
1007000, -59.020999
1007500, -58.832487
1008000, -58.645233
1008500, -58.456547
1009000, -58.268978
1009500, -58.079878
1010000, -57.891826
1010500, -57.702118
1011000, -57.513219
1011500, -57.322414
1012000, -57.132220
1012500, -56.939970
1013000, -56.748154
1013500, -56.553958
1014000, -56.359798
1014500, -56.162929
1015000, -55.965822
1015500, -55.765738
1016000, -55.564948
1016500, -55.360584
1017000, -55.154997
1017500, -54.945384
1018000, -54.734067
1018500, -54.517993
1019000, -54.299333
1019500, -54.075121
1020000, -53.847587
1020500, -53.613562
1021000, -53.374949
1021500, -53.128532
1022000, -52.876280
1022500, -52.614783
1023000, -52.345558
1023500, -52.064996
1024000, -51.774650
1024500, -51.470435
1025000, -51.153271
1025500, -50.818919
1026000, -50.467820
1026500, -50.094833
1027000, -49.699877
1027500, -49.276856
1028000, -48.824380
1028500, -48.335248
1029000, -47.806270
1029500, -47.228213
1030000, -46.595406
1030500, -45.895254
1031000, -45.118357
1031500, -44.247152
1032000, -43.265626
1032500, -42.148367
1033000, -40.869675
1033500, -39.391949
1034000, -37.674548
1034500, -35.662830
1035000, -33.298064
1035500, -30.509398
1036000, -27.230894
1036500, -23.405895
1037000, -19.024448
1037500, -14.152106
1038000, -8.985532
1038500, -3.859905
1039000, 0.785378
1039500, 4.538549
1040000, 7.140246
1040500, 8.552670
1041000, 8.904597
1041500, 8.409598
1042000, 7.279128
1042500, 5.695925
1043000, 3.795869
1043500, 1.683684
1044000, -0.568775
1044500, -2.904855
1045000, -5.287610
1045500, -7.686033
1046000, -10.082002
1046500, -12.458253
1047000, -14.807480
1047500, -17.120465
1048000, -19.396029
1048500, -21.630511
1049000, -23.827032
1049500, -25.985533
1050000, -28.112869
1050500, -30.213066
1051000, -32.296766
1051500, -34.371222
1052000, -36.450279
1052500, -38.544020
1053000, -40.668275
1053500, -42.833677
1054000, -45.054314
1054500, -47.335570
1055000, -49.680859
1055500, -52.078346
1056000, -54.506768
1056500, -56.921204
1057000, -59.264650
1057500, -61.461381
1058000, -63.439949
1058500, -65.138440
1059000, -66.527659
1059500, -67.605553
1060000, -68.402572
1060500, -68.960208
1061000, -69.329552
1061500, -69.553143
1062000, -69.671160
1062500, -69.710524
1063000, -69.695662
1063500, -69.639967
1064000, -69.557220
1064500, -69.452870
1065000, -69.334953
1065500, -69.204859
1066000, -69.067778
1066500, -68.923127
1067000, -68.774728
1067500, -68.621051
1068000, -68.465260
1068500, -68.305375
1069000, -68.144242
1069500, -67.979662
1070000, -67.814325
1070500, -67.645917
1071000, -67.477048
1071500, -67.305356
1072000, -67.133410
1072500, -66.958828
1073000, -66.784155
1073500, -66.606990
1074000, -66.429864
1074500, -66.250375
1075000, -66.071053
1075500, -65.889498
1076000, -65.708229
1076500, -65.524837
1077000, -65.341840
1077500, -65.156836
1078000, -64.972346
1078500, -64.785973
1079000, -64.600218
1079500, -64.412676
1080000, -64.225857
1080500, -64.037365
1081000, -63.849716
1081500, -63.660496
1082000, -63.472198
1082500, -63.282419
1083000, -63.093660
1083500, -62.903529
1084000, -62.714512
1084500, -62.524187
1085000, -62.335033
1085500, -62.144648
1086000, -61.955520
1086500, -61.765244
1087000, -61.576265
1087500, -61.386155
1088000, -61.197378
1088500, -61.007527
1089000, -60.819077
1089500, -60.629566
1090000, -60.441416
1090500, -60.252193
1091000, -60.064344
1091500, -59.875454
1092000, -59.687924
1092500, -59.499273
1093000, -59.311899
1093500, -59.123361
1094000, -58.936080
1094500, -58.747600
1095000, -58.560248
1095500, -58.371528
1096000, -58.183812
1096500, -57.994645
1097000, -57.806424
1097500, -57.616568
1098000, -57.427373
1098500, -57.236321
1099000, -57.045754
1099500, -56.853197
1100000, -56.660877
1100500, -56.466183
1101000, -56.271361
1101500, -56.073864
1102000, -55.875986
1102500, -55.675074
1103000, -55.473236
1103500, -55.267806
1104000, -55.060963
1104500, -54.850098
1105000, -54.637223
1105500, -54.419492
1106000, -54.198908
1106500, -53.972702
1107000, -53.742887
1107500, -53.506357
1108000, -53.264854
1108500, -53.015358
1109000, -52.759662
1109500, -52.494320
1110000, -52.220684
1110500, -51.935338
1111000, -51.639515
1111500, -51.329167
1112000, -51.005029
1112500, -50.663028
1113000, -50.303022
1113500, -49.920029
1114000, -49.513544
1114500, -49.077322
1115000, -48.609703
1115500, -48.102966
1116000, -47.553582
1116500, -46.951582
1117000, -46.290706
1117500, -45.557443
1118000, -44.740807
1118500, -43.822090
1119000, -42.783422
1119500, -41.597226
1120000, -40.234620
1120500, -38.654784
1121000, -36.813040
1121500, -34.650723
1122000, -32.105306
1122500, -29.104690
1123000, -25.586735
1123500, -21.509740
1124000, -16.894269
1124500, -11.857356
1125000, -6.660473
1125500, -1.694167
1126000, 2.594903
1126500, 5.851478
1127000, 7.912793
1127500, 8.827725
1128000, 8.772363
1128500, 7.968489
1129000, 6.615138
1129500, 4.875853
1130000, 2.869556
1130500, 0.687290
1131000, -1.608819
1131500, -3.969453
1132000, -6.362685
1132500, -8.761632
1133000, -11.150812
1133500, -13.515421
1134000, -15.849584
1134500, -18.145582
1135000, -20.403234
1135500, -22.619964
1136000, -24.799585
1136500, -26.943057
1137000, -29.057896
1137500, -31.148967
1138000, -33.227608
1138500, -35.302016
1139000, -37.386485
1139500, -39.491683
1140000, -41.633312
1140500, -43.821665
1141000, -46.069303
1141500, -48.379194
1142000, -50.750326
1142500, -53.165065
1143000, -55.594022
1143500, -57.984330
1144000, -60.272065
1144500, -62.379209
1145000, -64.238714
1145500, -65.800052
1146000, -67.048293
1146500, -67.995140
1147000, -68.679492
1147500, -69.146251
1148000, -69.445544
1148500, -69.617089
1149000, -69.697165
1149500, -69.709363
1150000, -69.675031
1150500, -69.605510
1151000, -69.512760
1151500, -69.401234
1152000, -69.277965
1152500, -69.143941
1153000, -69.003779
1153500, -68.856794
1154000, -68.706439
1154500, -68.551228
1155000, -68.394059
1155500, -68.233062
1156000, -68.070863
1156500, -67.905408
1157000, -67.739185
1157500, -67.570043
1158000, -67.400405
1158500, -67.228077
1159000, -67.055448
1159500, -66.880306
1160000, -66.705016
1160500, -66.527350
1161000, -66.349665
1161500, -66.169734
1162000, -65.989911
1162500, -65.807970
1163000, -65.626251
1163500, -65.442521
1164000, -65.259124
1164500, -65.073835
1165000, -64.889002
1165500, -64.702391
1166000, -64.516334
1166500, -64.328602
1167000, -64.141532
1167500, -63.952903
1168000, -63.765051
1168500, -63.575733
1169000, -63.387270
1169500, -63.197436
1170000, -63.008561
1170500, -62.818426
1171000, -62.629326
1171500, -62.439019
1172000, -62.249814
1172500, -62.059483
1173000, -61.870345
1173500, -61.680145
1174000, -61.491159
1174500, -61.301139
1175000, -61.112379
1175500, -60.922648
1176000, -60.734222
1176500, -60.544815
1177000, -60.356682
1177500, -60.167569
1178000, -59.979751
1178500, -59.790983
1179000, -59.603461
1179500, -59.414888
1180000, -59.227497
1180500, -59.039024
1181000, -58.851725
1181500, -58.663264
1182000, -58.475809
1182500, -58.287047
1183000, -58.099186
1183500, -57.909948
1184000, -57.721497
1184500, -57.531442
1185000, -57.341916
1185500, -57.150586
1186000, -56.959627
1186500, -56.766705
1187000, -56.573841
1187500, -56.378611
1188000, -56.183104
1188500, -55.984952
1189000, -55.786272
1189500, -55.584499
1190000, -55.381591
1190500, -55.175068
1191000, -54.966951
1191500, -54.754766
1192000, -54.540277
1192500, -54.320831
1193000, -54.098276
1193500, -53.870027
1194000, -53.637763
1194500, -53.398574
1195000, -53.154047
1195500, -52.901343
1196000, -52.641906
1196500, -52.372444
1197000, -52.094149
1197500, -51.803774
1198000, -51.502097
1198500, -51.185244
1199000, -50.853771
1199500, -50.503412
1200000, -50.133823
1200500, -49.740146
1201000, -49.321188
1201500, -48.870796
1202000, -48.386698
1202500, -47.860961
1203000, -47.289324
1203500, -46.661406
1204000, -45.969654
1204500, -45.200197
1205000, -44.340390
1205500, -43.369890
1206000, -42.268550
1206500, -41.006489
1207000, -39.551767
1207500, -37.859754
1208000, -35.881539
1208500, -33.554485
1209000, -30.813047
1209500, -27.585931
1210000, -23.819021
1210500, -19.491485
1211000, -14.664121
1211500, -9.514022
1212000, -4.367409
1212500, 0.347165
1213000, 4.204429
1213500, 6.929355
1214000, 8.457733
1214500, 8.909482
1215000, 8.489435
1215500, 7.415748
1216000, 5.870573
1216500, 3.998672
1217000, 1.903323
1217500, -0.336491
1218000, -2.667096
1218500, -5.045568
1219000, -7.444417
1219500, -9.840336
1220000, -12.220187
1220500, -14.571402
1221000, -16.889380
1221500, -19.167775
1222000, -21.407347
1222500, -23.606552
1223000, -25.769887
1223500, -27.899321
1224000, -30.003036
1224500, -32.086728
1225000, -34.162425
1225500, -36.239217
1226000, -38.331784
1226500, -40.451232
1227000, -42.612916
1227500, -44.826438
1228000, -47.102335
1228500, -49.440421
1229000, -51.834459
1229500, -54.260186
1230000, -56.679531
1230500, -59.032018
1231000, -61.248249
1231500, -63.251063
1232000, -64.981022
1232500, -66.401111
1233000, -67.510643
1233500, -68.333166
1234000, -68.913799
1234500, -69.298957
1235000, -69.536437
1235500, -69.662598
1236000, -69.709822
1236500, -69.698586
1237000, -69.647466
1237500, -69.566006
1238000, -69.464583
1238500, -69.346803
1239000, -69.218830
1239500, -69.081324
1240000, -68.938399
1240500, -68.789298
1241000, -68.637149
1241500, -68.480515
1242000, -68.322053
1242500, -68.160003
1243000, -67.996788
1243500, -67.830490
1244000, -67.663413
1244500, -67.493557
1245000, -67.323171
1245500, -67.150220
1246000, -66.976926
1246500, -66.801233
1247000, -66.625341
1247500, -66.447182
1248000, -66.268953
1248500, -66.088587
1249000, -65.908278
1249500, -65.725954
1250000, -65.543796
1250500, -65.359733
1251000, -65.175950
1251500, -64.990384
1252000, -64.805221
1252500, -64.618381
1253000, -64.432037
1253500, -64.244122
1254000, -64.056816
1254500, -63.868060
1255000, -63.680014
1255500, -63.490603
1256000, -63.301988
1256500, -63.112107
1257000, -62.923128
1257500, -62.732982
1258000, -62.543803
1258500, -62.353515
1259000, -62.164267
1259500, -61.973995
1260000, -61.784852
1260500, -61.594729
1261000, -61.405747
1261500, -61.215822
1262000, -61.027091
1262500, -60.837486
1263000, -60.649093
1263500, -60.459793
1264000, -60.271688
1264500, -60.082689
1265000, -59.894913
1265500, -59.706238
1266000, -59.518710
1266500, -59.330200
1267000, -59.142788
1267500, -58.954374
1268000, -58.767030
1268500, -58.578563
1269000, -58.390992
1269500, -58.202173
1270000, -58.014161
1270500, -57.824844
1271000, -57.636162
1271500, -57.445900
1272000, -57.256042
1272500, -57.064425
1273000, -56.873074
1273500, -56.679735
1274000, -56.486288
1274500, -56.290483
1275000, -56.094262
1275500, -55.895426
1276000, -55.695834
1276500, -55.493101
1277000, -55.289044
1277500, -55.081354
1278000, -54.871903
1278500, -54.658250
1279000, -54.442023
1279500, -54.220745
1280000, -53.996118
1280500, -53.765718
1281000, -53.530904
1281500, -53.288944
1282000, -53.041286
1282500, -52.785255
1283000, -52.521919
1283500, -52.248164
1284000, -51.965033
1284500, -51.669365
1285000, -51.361561
1285500, -51.037908
1286000, -50.698788
1286500, -50.339701
1287000, -49.960123
1287500, -49.555207
1288000, -49.123169
1288500, -48.657930
1289000, -48.156375
1289500, -47.610570
1290000, -47.015199
1290500, -46.359757
1291000, -45.635310
1291500, -44.826769
1292000, -43.920238
1292500, -42.893868
1293000, -41.725040
1293500, -40.381073
1294000, -38.826298
1294500, -37.012629
1295000, -34.886739
1295500, -32.382424
1296000, -29.432334
1296500, -25.968758
1297000, -21.949978
1297500, -17.384499
1298000, -12.382339
1298500, -7.185307
1299000, -2.176546
1299500, 2.200932
1300000, 5.572332
1300500, 7.756717
1301000, 8.780215
1301500, 8.814398
1302000, 8.075846
1302500, 6.771262
1303000, 5.064126
1303500, 3.081487
1304000, 0.912895
1304500, -1.372978
1305000, -3.729745
1305500, -6.120017
1306000, -8.520198
1306500, -10.910051
1307000, -13.278507
1307500, -15.615005
1308000, -17.916081
1308500, -20.176651
1309000, -22.398331
1309500, -24.580579
1310000, -26.728573
1310500, -28.845269
1311000, -30.939516
1311500, -33.017954
1312000, -35.093027
1312500, -37.174721
1313000, -39.278034
1313500, -41.414329
1314000, -43.598361
1314500, -45.838618
1315000, -48.143066
1315500, -50.507588
1316000, -52.919944
1316500, -55.348567
1317000, -57.746582
1317500, -60.046799
1318000, -62.176653
1318500, -64.063052
1319000, -65.657030
1319500, -66.935799
1320000, -67.912671
1320500, -68.620475
1321000, -69.107923
1321500, -69.421131
1322000, -69.604858
1322500, -69.691908
1323000, -69.710957
1323500, -69.679667
1324000, -69.614167
1324500, -69.522457
1325000, -69.413545
1325500, -69.290333
1326000, -69.158236
1326500, -69.017651
1327000, -68.872254
1327500, -68.721240
1328000, -68.567446
1328500, -68.409495
1329000, -68.249825
1329500, -68.086778
1330000, -67.922598
1330500, -67.755489
1331000, -67.587591
1331500, -67.417042
1332000, -67.245935
1332500, -67.072378
1333000, -66.898439
1333500, -66.722208
1334000, -66.545731
1334500, -66.367092
1335000, -66.188336
1335500, -66.007548
1336000, -65.826769
1336500, -65.644075
1337000, -65.461494
1337500, -65.277111
1338000, -65.092960
1338500, -64.907128
1339000, -64.721644
1339500, -64.534580
1340000, -64.347962
1340500, -64.159875
1341000, -63.972347
1341500, -63.783470
1342000, -63.595244
1342500, -63.405748
1343000, -63.216996
1343500, -63.027076
1344000, -62.838010
1344500, -62.647860
1345000, -62.458616
1345500, -62.268354
1346000, -62.079077
1346500, -61.888873
1347000, -61.699722
1347500, -61.509671
1348000, -61.320696
1348500, -61.130867
1349000, -60.942173
1349500, -60.752678
1350000, -60.564311
1350500, -60.375112
1351000, -60.187037
1351500, -59.998150
1352000, -59.810424
1352500, -59.621844
1353000, -59.434318
1353500, -59.245874
1354000, -59.058449
1354500, -58.870096
1355000, -58.682691
1355500, -58.494201
1356000, -58.306507
1356500, -58.117622
1357000, -57.929458
1357500, -57.740002
1358000, -57.551049
1358500, -57.360542
1359000, -57.170331
1359500, -56.978405
1360000, -56.786631
1360500, -56.592844
1361000, -56.398795
1361500, -56.202395
1362000, -56.005448
1362500, -55.805913
1363000, -55.605400
1363500, -55.401692
1364000, -55.196476
1364500, -54.987604
1365000, -54.776793
1365500, -54.561639
1366000, -54.343647
1366500, -54.120504
1367000, -53.893778
1367500, -53.661031
1368000, -53.423501
1368500, -53.178621
1369000, -52.927700
1369500, -52.668080
1370000, -52.400613
1370500, -52.122343
1371000, -51.834168
1371500, -51.532790
1372000, -51.218473
1372500, -50.887637
1373000, -50.540241
1373500, -50.171808
1374000, -49.781625
1374500, -49.364487
1375000, -48.918389
1375500, -48.437077
1376000, -47.916781
1376500, -47.349309
1377000, -46.728469
1377500, -46.042849
1378000, -45.282885
1378500, -44.432093
1379000, -43.474669
1379500, -42.386844
1380000, -41.143425
1380500, -39.709022
1381000, -38.044119
1381500, -36.096615
1382000, -33.808844
1382500, -31.111692
1383000, -27.937615
1383500, -24.225974
1384000, -19.955049
1384500, -15.171114
1385000, -10.041851
1385500, -4.874906
1386000, -0.096618
1386500, 3.864383
1387000, 6.709223
1387500, 8.356081
1388000, 8.906770
1388500, 8.565395
1389000, 7.547618
1389500, 6.043708
1390000, 4.198506
1390500, 2.122629
1391000, -0.106395
1391500, -2.428964
1392000, -4.805030
1392500, -7.202069
1393000, -9.599941
1393500, -11.981117
1394000, -14.336369
1394500, -16.656975
1395000, -18.940499
1395500, -21.183031
1396000, -23.387013
1396500, -25.552873
1397000, -27.686481
1397500, -29.791766
1398000, -31.878255
1398500, -33.953511
1399000, -36.030492
1399500, -38.119816
1400000, -40.236719
1400500, -42.392607
1401000, -44.601314
1401500, -46.869720
1402000, -49.202567
1402500, -51.590900
1403000, -54.015686
1403500, -56.437415
1404000, -58.800680
1404500, -61.032990
1405000, -63.061457
1405500, -64.820302
1406000, -66.273086
1406500, -67.412183
1407000, -68.262706
1407500, -68.864585
1408000, -69.268126
1408500, -69.517675
1409000, -69.654415
1409500, -69.707538
1410000, -69.702237
1410500, -69.653635
1411000, -69.575697
1411500, -69.475093
1412000, -69.359643
1412500, -69.231658
1413000, -69.095901
1413500, -68.952559
1414000, -68.804920
1414500, -68.652150
1415000, -68.496831
1415500, -68.337644
1416000, -68.176829
1416500, -68.012832
1417000, -67.847724
1417500, -67.679830
1418000, -67.511135
1418500, -67.339911
1419000, -67.168101
1419500, -66.993950
1420000, -66.819382
1420500, -66.642621
1421000, -66.465573
1421500, -66.286463
1422000, -66.107194
1422500, -65.925991
1423000, -65.744752
1423500, -65.561690
1424000, -65.378700
1424500, -65.194003
1425000, -65.009497
1425500, -64.823408
1426000, -64.637616
1426500, -64.450338
1427000, -64.263460
1427500, -64.075209
1428000, -63.887476
1428500, -63.698477
1429000, -63.510081
1429500, -63.320504
1430000, -63.131626
1430500, -62.941676
1431000, -62.752525
1431500, -62.562371
1432000, -62.373070
1432500, -62.182838
1433000, -61.993545
1433500, -61.803414
1434000, -61.614267
1434500, -61.424294
1435000, -61.235339
1435500, -61.045612
1436000, -60.856968
1436500, -60.667578
1437000, -60.479243
1437500, -60.290143
1438000, -60.102105
1438500, -59.913332
1439000, -59.725623
1439500, -59.537109
1440000, -59.349571
1440500, -59.161178
1441000, -58.973735
1441500, -58.785421
1442000, -58.597944
1442500, -58.409418
1443000, -58.221597
1443500, -58.032638
1444000, -57.844322
1444500, -57.654712
1445000, -57.465478
1445500, -57.274714
1446000, -57.084143
1446500, -56.891899
1447000, -56.699634
1447500, -56.505339
1448000, -56.310642
1448500, -56.113603
1449000, -55.915899
1449500, -55.715534
1450000, -55.513995
1450500, -55.309219
1451000, -55.102768
1451500, -54.892641
1452000, -54.680294
1452500, -54.463483
1453000, -54.243592
1453500, -54.018457
1454000, -53.789520
1454500, -53.554309
1455000, -53.313950
1455500, -53.066026
1456000, -52.811719
1456500, -52.548291
1457000, -52.276477
1457500, -51.993465
1458000, -51.700005
1458500, -51.392650
1459000, -51.071531
1459500, -50.733193
1460000, -50.377070
1460500, -49.998799
1461000, -49.597485
1461500, -49.167517
1462000, -48.706677
1462500, -48.208174
1463000, -47.667948
1463500, -47.077057
1464000, -46.428893
1464500, -45.710974
1465000, -44.912356
1465500, -44.015684
1466000, -43.003328
1466500, -41.849401
1467000, -40.525664
1467500, -38.993339
1468000, -37.209145
1468500, -35.116788
1469000, -32.654708
1469500, -29.752012
1470000, -26.343711
1470500, -22.381276
1471000, -17.869705
1471500, -12.902495
1472000, -7.710556
1472500, -2.661902
1473000, 1.797624
1473500, 5.283502
1474000, 7.588975
1474500, 8.724595
1475000, 8.848258
1475500, 8.178929
1476000, 6.922547
1476500, 5.250743
1477000, 3.290491
1477500, 1.138159
1478000, -1.139127
1478500, -3.489575
1479000, -5.878573
1479500, -8.277805
1480000, -10.670152
1480500, -13.040455
1481000, -15.381178
1481500, -17.685115
1482000, -19.950805
1482500, -22.175453
1483000, -24.362259
1483500, -26.512614
1484000, -28.633085
1484500, -30.728556
1485000, -32.809219
1485500, -34.883517
1486000, -36.964914
1486500, -39.064556
1487000, -41.197679
1487500, -43.375483
1488000, -45.610507
1488500, -47.907463
1489000, -50.267180
1489500, -52.675007
1490000, -55.104468
1490500, -57.507583
1491000, -59.821749
1491500, -61.971161
1492000, -63.885777
1492500, -65.509892
1493000, -66.821232
1493500, -67.826403
1494000, -68.560137
1494500, -69.066758
1495000, -69.396340
1495500, -69.590601
1496000, -69.686916
1496500, -69.711013
1497000, -69.684923
1497500, -69.621540
1498000, -69.532950
1498500, -69.424697
1499000, -69.303585
1499500, -69.171435
1500000, -69.032450
1500500, -68.886651
1501000, -68.736988
1501500, -68.582617
1502000, -68.425889
1502500, -68.265549
1503000, -68.103656
1503500, -67.938754
1504000, -67.772759
1504500, -67.604109
1505000, -67.434646
1505500, -67.262766
1506000, -67.090276
1506500, -66.915548
1507000, -66.740368
1507500, -66.563089
1508000, -66.385488
1508500, -66.205918
1509000, -66.026153
1509500, -65.844549
1510000, -65.662865
1510500, -65.479450
1511000, -65.296066
1511500, -65.111068
1512000, -64.926222
1512500, -64.739881
1513000, -64.553793
1513500, -64.366309
1514000, -64.179185
1514500, -63.990781
1515000, -63.802857
1515500, -63.613747
1516000, -63.425194
1516500, -63.235548
1517000, -63.046560
1517500, -62.856590
1518000, -62.667362
1518500, -62.477210
1519000, -62.287863
1519500, -62.097670
1520000, -61.908371
1520500, -61.718300
1521000, -61.529152
1521500, -61.339255
1522000, -61.150323
1522500, -60.960701
1523000, -60.772102
1523500, -60.582812
1524000, -60.394509
1524500, -60.205510
1525000, -60.017515
1525500, -59.828861
1526000, -59.641177
1526500, -59.452734
1527000, -59.265191
1527500, -59.076853
1528000, -58.889402
1528500, -58.701096
1529000, -58.513525
1529500, -58.324945
1530000, -58.136988
1530500, -57.947945
1531000, -57.759436
1531500, -57.569634
1532000, -57.380096
1532500, -57.189054
1533000, -56.998111
1533500, -56.805535
1534000, -56.612771
1534500, -56.417957
1535000, -56.222608
1535500, -56.024921
1536000, -55.826456
1536500, -55.625245
1537000, -55.422669
1537500, -55.216808
1538000, -55.009111
1538500, -54.797714
1539000, -54.583817
1539500, -54.365325
1540000, -54.143516
1540500, -53.916365
1541000, -53.685058
1541500, -53.447242
1542000, -53.203930
1542500, -52.952846
1543000, -52.694962
1543500, -52.427544
1544000, -52.151213
1544500, -51.863290
1545000, -51.564119
1545500, -51.250387
1546000, -50.922092
1546500, -50.575702
1547000, -50.210317
1547500, -49.821665
1548000, -49.408227
1548500, -48.964447
1549000, -48.487783
1549500, -47.970935
1550000, -47.409465
1550500, -46.793683
1551000, -46.115997
1551500, -45.363391
1552000, -44.523298
1552500, -43.576772
1553000, -42.504076
1553500, -41.277026
1554000, -39.864440
1554500, -38.224231
1555000, -36.308657
1555500, -34.057471
1556000, -31.405657
1556500, -28.282121
1557000, -24.627828
1557500, -20.412343
1558000, -15.676445
1558500, -10.570144
1559000, -5.390319
1559500, -0.551500
1560000, 3.508261
1560500, 6.474798
1561000, 8.240599
1561500, 8.895465
1562000, 8.634100
1562500, 7.676820
1563000, 6.214330
1563500, 4.399160
1564000, 2.341959
1564500, 0.126377
1565000, -2.189545
1565500, -4.560852
1566000, -6.957663
1566500, -9.355373
1567000, -11.739561
1567500, -14.097173
1568000, -16.422235
1568500, -18.708865
1569000, -20.956525
1569500, -23.163487
1570000, -25.333691
1570500, -27.469482
1571000, -29.578134
1571500, -31.665472
1572000, -33.742354
1572500, -35.818055
1573000, -37.906486
1573500, -40.019247
1574000, -42.171340
1574500, -44.373418
1575000, -46.636256
1575500, -48.961753
1576000, -51.346037
1576500, -53.767838
1577000, -56.192690
1577500, -58.564230
1578000, -60.813994
1578500, -62.865472
1579000, -64.654688
1579500, -66.138611
1580000, -67.309879
1580500, -68.187436
1581000, -68.813335
1581500, -69.234176
1582000, -69.498304
1582500, -69.644245
1583000, -69.705498
1583500, -69.704527
1584000, -69.660497
1584500, -69.584346
1585000, -69.486519
1585500, -69.371602
1586000, -69.245516
1586500, -69.109680
1587000, -68.967807
1587500, -68.819786
1588000, -68.668271
1588500, -68.512418
1589000, -68.354373
1589500, -68.192943
1590000, -68.030025
1590500, -67.864255
1591000, -67.697405
1591500, -67.528021
1592000, -67.357814
1592500, -67.185295
1593000, -67.012143
1593500, -66.836851
1594000, -66.661074
1594500, -66.483289
1595000, -66.305149
1595500, -66.125130
1596000, -65.944884
1596500, -65.762884
1597000, -65.580768
1597500, -65.397006
1598000, -65.213242
1598500, -65.027952
1599000, -64.842783
1599500, -64.656198
1600000, -64.469828
1600500, -64.282147
1601000, -64.094792
1601500, -63.906244
1602000, -63.718132
1602500, -63.528913
1603000, -63.340213
1603500, -63.150504
1604000, -62.961418
1604500, -62.771428
1605000, -62.582132
1605500, -62.391987
1606000, -62.202605
1606500, -62.012457
1607000, -61.823167
1607500, -61.633163
1608000, -61.444028
1608500, -61.254213
1609000, -61.065317
1609500, -60.875807
1610000, -60.687246
1610500, -60.498049
1611000, -60.309779
1611500, -60.120879
1612000, -59.932932
1612500, -59.744365
1613000, -59.556688
1613500, -59.368300
1614000, -59.180746
1614500, -58.992456
1615000, -58.804991
1615500, -58.616685
1616000, -58.429022
1616500, -58.240383
1617000, -58.052292
1617500, -57.863163
1618000, -57.674437
1618500, -57.484419
1619000, -57.294561
1619500, -57.103224
1620000, -56.911899
1620500, -56.718898
1621000, -56.525564
1621500, -56.330168
1622000, -56.134118
1622500, -55.935740
1623000, -55.736409
1623500, -55.534259
1624000, -55.330570
1624500, -55.123556
1625000, -54.914556
1625500, -54.701715
1626000, -54.486123
1626500, -54.265821
1627000, -54.041980
1627500, -53.812703
1628000, -53.578893
1628500, -53.338335
1629000, -53.091943
1629500, -52.837565
1630000, -52.575842
1630500, -52.304176
1631000, -52.023081
1631500, -51.729993
1632000, -51.424842
1632500, -51.104439
1633000, -50.768650
1633500, -50.413681
1634000, -50.038491
1634500, -49.638879
1635000, -49.212673
1635500, -48.754360
1636000, -48.260614
1636500, -47.724100
1637000, -47.139388
1637500, -46.496624
1638000, -45.786911
1638500, -44.996309
1639000, -44.111131
1639500, -43.110641
1640000, -41.972784
1640500, -40.666872
1641000, -39.158101
1641500, -37.400670
1642000, -35.342589
1642500, -32.919845
1643000, -30.065018
1643500, -26.708945
1644000, -22.803428
1644500, -18.343263
1645000, -13.414413
1645500, -8.229889
1646000, -3.147949
1646500, 1.391041
1647000, 4.986563
1647500, 7.414000
1648000, 8.660566
1648500, 8.876701
1649000, 8.276102
1649500, 7.070763
1650000, 5.433309
1650500, 3.497829
1651000, 1.360473
1651500, -0.906162
1652000, -3.251849
1652500, -5.637569
1653000, -8.037533
1653500, -10.430433
1654000, -12.804151
1654500, -15.147522
1655000, -17.455990
1655500, -19.724880
1656000, -21.954524
1656500, -24.144211
1657000, -26.298586
1657500, -28.420948
1658000, -30.519283
1658500, -32.600343
1659000, -34.675628
1659500, -36.755189
1660000, -38.853299
1660500, -40.981847
1661000, -43.155403
1661500, -45.383639
1662000, -47.675026
1662500, -50.027924
1663000, -52.432853
1663500, -54.861247
1664000, -57.270343
1664500, -59.596030
1665000, -61.765941
1665500, -63.705931
1666000, -65.361272
1666500, -66.703311
1667000, -67.738714
1667500, -68.496997
1668000, -69.024933
1668500, -69.369524
1669000, -69.576365
1669500, -69.680446
1670000, -69.711503
1670500, -69.689003
1671000, -69.629562
1671500, -69.542420
1672000, -69.436603
1672500, -69.315887
1673000, -69.185437
1673500, -69.046336
1674000, -68.901875
1674500, -68.751841
1675000, -68.598626
1675500, -68.441398
1676000, -68.282118
1676500, -68.119655
1677000, -67.955759
1677500, -67.789153
1678000, -67.621476
1678500, -67.451378
1679000, -67.280448
1679500, -67.107304
1680000, -66.933508
1680500, -66.757659
1681000, -66.581299
1681500, -66.403017
1682000, -66.224352
1682500, -66.043894
1683000, -65.863181
1683500, -65.680793
1684000, -65.498258
1684500, -65.314159
1685000, -65.130029
1685500, -64.944457
1686000, -64.758972
1686500, -64.572150
1687000, -64.385510
1687500, -64.197641
1688000, -64.010069
1688500, -63.821388
1689000, -63.633102
1689500, -63.443785
1690000, -63.254952
1690500, -63.065189
1691000, -62.876020
1691500, -62.686011
1692000, -62.496654
1692500, -62.306520
1693000, -62.117114
1693500, -61.927019
1694000, -61.737729
1694500, -61.547786
1695000, -61.358665
1695500, -61.168933
1696000, -60.980080
1696500, -60.790680
1697000, -60.602163
1697500, -60.413061
1698000, -60.224833
1698500, -60.036036
1699000, -59.848147
1699500, -59.659665
1700000, -59.471998
1700500, -59.283664
1701000, -59.096104
1701500, -58.907863
1702000, -58.720345
1702500, -58.532005
1703000, -58.344226
1703500, -58.155510
1704000, -57.967273
1704500, -57.778024
1705000, -57.589057
1705500, -57.398802
1706000, -57.208612
1706500, -57.016966
1707000, -56.825254
1707500, -56.631817
1708000, -56.437906
1708500, -56.241918
1709000, -56.045162
1709500, -55.846083
1710000, -55.645846
1710500, -55.442718
1711000, -55.237884
1711500, -55.029683
1712000, -54.819353
1712500, -54.605021
1713000, -54.387689
1713500, -54.165527
1714000, -53.939610
1714500, -53.708061
1715000, -53.471616
1715500, -53.228191
1716000, -52.978600
1716500, -52.720770
1717000, -52.455053
1717500, -52.178979
1718000, -51.892957
1718500, -51.594308
1719000, -51.282803
1719500, -50.955358
1720000, -50.611608
1720500, -50.247575
1721000, -49.862079
1721500, -49.450634
1722000, -49.010783
1722500, -48.537018
1723000, -48.025184
1723500, -47.467885
1724000, -46.858644
1724500, -46.187046
1725000, -45.443246
1725500, -44.611959
1726000, -43.677707
1726500, -42.618154
1727000, -41.408732
1727500, -40.015834
1728000, -38.401373
1728500, -36.515374
1729000, -34.301605
1729500, -31.692705
1730000, -28.620443
1730500, -25.021086
1731000, -20.862157
1731500, -16.172824
1732000, -11.093105
1732500, -5.902052
1733000, -1.008588
1733500, 3.147924
1734000, 6.232238
1734500, 8.117851
1735000, 8.875505
1735500, 8.696466
1736000, 7.798764
1736500, 6.379948
1737000, 4.593655
1737500, 2.557146
1738000, 0.353668
1738500, -1.953808
1739000, -4.321824
1739500, -6.716564
1740000, -9.115798
1740500, -11.501200
1741000, -13.862586
1741500, -16.190512
1742000, -18.481726
1742500, -20.732677
1743000, -22.944520
1743500, -25.117533
1744000, -27.257038
1744500, -29.367287
1745000, -31.456988
1745500, -33.533797
1746000, -35.609831
1746500, -37.695838
1747000, -39.806346
1747500, -41.953333
1748000, -44.150655
1748500, -46.406541
1749000, -48.726525
1749500, -51.104651
1750000, -53.524817
1750500, -55.950778
1751000, -58.331482
1751500, -60.596286
1752000, -62.671436
1752500, -64.488423
1753000, -66.004448
1753500, -67.205927
1754000, -68.112029
1754500, -68.760372
1755000, -69.200239
1755500, -69.477454
1756000, -69.634319
1756500, -69.702177
1757000, -69.707213
1757500, -69.666188
1758000, -69.593468
1758500, -69.496828
1759000, -69.384066
1759500, -69.258278
1760000, -69.123975
1760500, -68.981965
1761000, -68.835172
1761500, -68.683303
1762000, -68.528521
1762500, -68.370012
1763000, -68.209569
1763500, -68.046126
1764000, -67.881296
1764500, -67.713884
1765000, -67.545410
1765500, -67.374619
1766000, -67.202989
1766500, -67.029236
1767000, -66.854816
1767500, -66.678423
1768000, -66.501497
1768500, -66.322729
1769000, -66.143556
1769500, -65.962670
1770000, -65.781504
1770500, -65.598738
1771000, -65.415798
1771500, -65.231373
1772000, -65.046891
1772500, -64.861049
1773000, -64.675261
1773500, -64.488210
1774000, -64.301314
1774500, -64.113267
1775000, -63.925493
1775500, -63.736679
1776000, -63.548225
1776500, -63.358815
1777000, -63.169860
1777500, -62.980054
1778000, -62.790810
1778500, -62.600790
1779000, -62.411383
1779500, -62.221269
1780000, -62.031850
1780500, -61.841818
1781000, -61.652537
1781500, -61.462660
1782000, -61.273563
1782500, -61.083920
1783000, -60.895122
1783500, -60.705814
1784000, -60.517332
1784500, -60.328317
1785000, -60.140131
1785500, -59.951436
1786000, -59.763587
1786500, -59.575173
1787000, -59.387509
1787500, -59.199222
1788000, -59.011656
1788500, -58.823463
1789000, -58.635893
1789500, -58.447518
1790000, -58.259627
1790500, -58.070833
1791000, -57.882457
1791500, -57.693046
1792000, -57.503809
1792500, -57.313290
1793000, -57.122750
1793500, -56.930779
1794000, -56.738604
1794500, -56.544666
1795000, -56.350130
1795500, -56.153507
1796000, -55.956013
1796500, -55.756152
1797000, -55.554946
1797500, -55.350781
1798000, -55.144757
1798500, -54.935323
1799000, -54.723538
1799500, -54.507602
1800000, -54.288436
1800500, -54.064325
1801000, -53.836253
1801500, -53.602280
1802000, -53.363064
1802500, -53.116638
1803000, -52.863725
1803500, -52.602139
1804000, -52.332153
1804500, -52.051404
1805000, -51.760200
1805500, -51.455669
1806000, -51.137489
1806500, -50.802661
1807000, -50.450344
1807500, -50.076636
1808000, -49.680211
1808500, -49.256156
1809000, -48.801835
1809500, -48.311213
1810000, -47.779847
1810500, -47.199648
1811000, -46.563681
1811500, -45.860461
1812000, -45.079209
1812500, -44.203531
1813000, -43.215975
1813500, -42.092131
1814000, -40.804793
1814500, -39.317167
1815000, -37.587035
1815500, -35.560534
1816000, -33.177316
1816500, -30.367522
1817000, -27.064293
1817500, -23.213275
1818000, -18.806218
1818500, -13.915335
1819000, -8.742129
1819500, -3.629819
1820000, 0.981787
1820500, 4.684829
1821000, 7.230415
1821500, 8.589105
1822000, 8.896806
1822500, 8.367366
1823000, 7.212396
1823500, 5.611463
1824000, 3.699775
1824500, 1.579356
1825000, -0.677795
1825500, -3.017027
1826000, -5.400751
1826500, -7.799687
1827000, -10.194714
1827500, -12.570167
1828000, -14.917562
1828500, -17.229004
1829000, -19.502443
1829500, -21.735370
1830000, -23.929736
1830500, -26.086780
1831000, -28.212488
1831500, -30.312065
1832000, -32.394945
1832500, -34.469657
1833000, -36.548898
1833500, -38.644021
1834000, -40.769667
1834500, -42.937658
1835000, -45.160778
1835500, -47.445268
1836000, -49.793012
1836500, -52.192901
1837000, -54.621350
1837500, -57.034078
1838000, -59.372083
1838500, -61.560288
1839000, -63.526504
1839500, -65.211059
1840000, -66.585020
1840500, -67.649083
1841000, -68.433504
1841500, -68.981416
1842000, -69.342692
1842500, -69.560773
1843000, -69.674249
1843500, -69.710865
1844000, -69.693525
1844500, -69.636577
1845000, -69.552415
1845500, -69.447559
1846000, -69.328751
1846500, -69.198516
1847000, -69.060799
1847500, -68.916186
1848000, -68.767277
1848500, -68.613727
1849000, -68.457491
1849500, -68.297779
1850000, -68.136236
1850500, -67.971855
1851000, -67.806127
1851500, -67.637934
1852000, -67.468688
1852500, -67.297221
1853000, -67.124908
1853500, -66.950558
1854000, -66.775526
1854500, -66.598599
1855000, -66.421119
1855500, -66.241876
1856000, -66.062207
1856500, -65.880903
1857000, -65.699292
1857500, -65.516156
1858000, -65.332823
1858500, -65.148080
1859000, -64.963261
1859500, -64.777154
1860000, -64.591074
1860500, -64.403803
1861000, -64.216665
1861500, -64.028450
1862000, -63.840487
1862500, -63.651548
1863000, -63.462941
1863500, -63.273447
1864000, -63.084384
1864500, -62.894543
1865000, -62.705226
1865500, -62.515193
1866000, -62.325743
1866500, -62.135654
1867000, -61.946234
1867500, -61.756256
1868000, -61.566986
1868500, -61.377175
1869000, -61.188110
1869500, -60.998561
1870000, -60.809827
1870500, -60.620618
1871000, -60.432182
1871500, -60.243261
1872000, -60.055127
1872500, -59.866541
1873000, -59.678723
1873500, -59.490370
1874000, -59.302707
1874500, -59.114464
1875000, -58.926894
1875500, -58.738704
1876000, -58.551052
1876500, -58.362616
1877000, -58.174597
1877500, -57.985711
1878000, -57.797177
1878500, -57.607589
1879000, -57.418071
1879500, -57.227277
1880000, -57.036382
1880500, -56.844077
1881000, -56.651416
1881500, -56.456955
1882000, -56.261776
1882500, -56.064498
1883000, -55.866252
1883500, -55.665537
1884000, -55.463302
1884500, -55.258045
1885000, -55.050782
1885500, -54.840070
1886000, -54.626743
1886500, -54.409120
1887000, -54.188046
1887500, -53.961913
1888000, -53.731556
1888500, -53.495032
1889000, -53.252927
1889500, -53.003379
1890000, -52.747025
1890500, -52.481551
1891000, -52.207154
1891500, -51.921574
1892000, -51.624862
1892500, -51.314124
1893000, -50.988940
1893500, -50.646365
1894000, -50.285086
1894500, -49.901272
1895000, -49.493212
1895500, -49.055804
1896000, -48.586226
1896500, -48.077830
1897000, -47.525916
1897500, -46.921567
1898000, -46.257257
1898500, -45.520583
1899000, -44.699249
1899500, -43.775511
1900000, -42.730137
1900500, -41.536445
1901000, -40.164104
1901500, -38.573098
1902000, -36.717117
1902500, -34.538205
1903000, -31.972348
1903500, -28.948492
1904000, -25.404008
1904500, -21.300315
1905000, -16.660570
1905500, -11.609359
1906000, -6.413865
1906500, -1.470441
1907000, 2.776165
1907500, 5.977221
1908000, 7.981555
1908500, 8.845210
1909000, 8.749277
1909500, 7.914571
1910000, 6.539624
1910500, 4.784853
1911000, 2.768544
1911500, 0.579277
1912000, -1.720644
1912500, -4.083728
1913000, -6.477507
1913500, -8.876568
1914000, -11.264527
1914500, -13.628094
1915000, -15.960288
1915500, -18.254616
1916000, -20.510116
1916500, -22.725272
1917000, -24.902806
1917500, -27.044895
1918000, -29.158152
1918500, -31.248739
1919000, -33.326814
1919500, -35.401740
1920000, -37.486733
1920500, -39.593628
1921000, -41.737001
1921500, -43.928222
1922000, -46.178587
1922500, -48.491729
1923000, -50.865144
1923500, -53.281757
1924000, -55.709850
1924500, -58.097111
1925000, -60.377568
1925500, -62.474429
1926000, -64.320243
1926500, -65.866890
1927000, -67.099962
1927500, -68.033506
1928000, -68.706114
1928500, -69.164043
1929000, -69.456120
1929500, -69.622822
1930000, -69.698909
1930500, -69.708729
1931000, -69.672223
1931500, -69.601626
1932000, -69.507624
1932500, -69.395668
1933000, -69.271597
1933500, -69.137458
1934000, -68.996714
1934500, -68.849769
1935000, -68.698943
1935500, -68.543850
1936000, -68.386265
1936500, -68.225427
1937000, -68.062844
1937500, -67.897571
1938000, -67.730983
1938500, -67.562037
1939000, -67.392045
1939500, -67.219923
1940000, -67.046949
1940500, -66.872021
1941000, -66.696393
1941500, -66.518947
1942000, -66.340931
1942500, -66.161225
1943000, -65.981077
1943500, -65.799367
1944000, -65.617329
1944500, -65.433834
1945000, -65.250124
1945500, -65.065077
1946000, -64.879936
1946500, -64.693572
1947000, -64.507212
1947500, -64.319731
1948000, -64.132364
1948500, -63.943992
1949000, -63.755848
1949500, -63.566790
1950000, -63.378040
1950500, -63.188471
1951000, -62.999313
1951500, -62.809448
1952000, -62.620071
1952500, -62.430037
1953000, -62.240557
1953500, -62.050502
1954000, -61.861093
1954500, -61.671171
1955000, -61.481916
1955500, -61.292176
1956000, -61.103149
1956500, -60.913700
1957000, -60.725008
1957500, -60.535881
1958000, -60.347482
1958500, -60.158649
1959000, -59.970567
1959500, -59.782076
1960000, -59.594285
1960500, -59.405986
1961000, -59.218325
1961500, -59.030126
1962000, -58.842557
1962500, -58.654364
1963000, -58.466631
1963500, -58.278131
1964000, -58.089987
1964500, -57.901009
1965000, -57.712266
1965500, -57.522456
1966000, -57.332629
1966500, -57.141535
1967000, -56.950267
1967500, -56.757568
1968000, -56.564375
1968500, -56.369350
1969000, -56.173501
1969500, -55.975543
1970000, -55.776500
1970500, -55.574891
1971000, -55.371595
1971500, -55.165213
1972000, -54.956689
1972500, -54.744614
1973000, -54.529676
1973500, -54.310300
1974000, -54.087261
1974500, -53.859050
1975000, -53.626251
1975500, -53.387034
1976000, -53.141911
1976500, -52.889119
1977000, -52.629005
1977500, -52.359353
1978000, -52.080282
1978500, -51.789619
1979000, -51.487037
1979500, -51.169734
1980000, -50.837192
1980500, -50.486180
1981000, -50.115275
1981500, -49.720688
1982000, -49.300097
1982500, -48.848413
1983000, -48.362220
1983500, -47.834640
1984000, -47.260248
1984500, -46.629703
1985000, -45.934255
1985500, -45.160957
1986000, -44.296028
1986500, -43.319983
1987000, -42.211370
1987500, -40.941100
1988000, -39.475743
1988500, -37.771363
1989000, -35.777523
1989500, -33.432245
1990000, -30.668657
1990500, -27.416816
1991000, -23.622588
1991500, -19.269106
1992000, -14.420602
1992500, -9.262251
1993000, -4.125694
1993500, 0.556673
1994000, 4.364321
1994500, 7.030880
1995000, 8.503641
1995500, 8.907932
1996000, 8.451661
1996500, 7.351035
1997000, 5.787303
1997500, 3.902182
1998000, 1.798439
1998500, -0.447156
1999000, -2.780707
1999500, -5.160950
2000000, -7.559914
2000500, -9.955574
2001000, -12.333958
2001500, -14.683927
2002000, -16.999837
2002500, -19.276476
2003000, -21.513907
2003500, -23.711556
2004000, -25.872910
2004500, -28.001073
2005000, -30.103281
2005500, -32.186650
2006000, -34.262052
2006500, -36.339636
2007000, -38.433064
2007500, -40.554507
2008000, -42.718253
2008500, -44.934862
2009000, -47.213639
2009500, -49.554869
2010000, -51.950849
2010500, -54.377721
2011000, -56.795106
2011500, -59.143050
2012000, -61.350329
2012500, -63.341324
2013000, -65.056585
2013500, -66.461661
2014000, -67.556366
2014500, -68.366378
2015000, -68.936279
2015500, -69.313549
2016000, -69.544654
2016500, -69.666603
2017000, -69.710347
2017500, -69.697069
2018000, -69.644048
2018500, -69.561672
2019000, -69.459140
2019500, -69.340997
2020000, -69.212302
2020500, -69.074704
2021000, -68.931247
2021500, -68.782187
2022000, -68.629601
2022500, -68.473076
2023000, -68.314227
2023500, -68.152322
2024000, -67.988747
2024500, -67.822615
2025000, -67.655195
2025500, -67.485517
2026000, -67.314800
2026500, -67.142037
2027000, -66.968419
2027500, -66.792922
2028000, -66.616713
2028500, -66.438756
2029000, -66.260216
2029500, -66.080058
2030000, -65.899444
2030500, -65.717333
2031000, -65.534877
2031500, -65.351032
2032000, -65.166957
2032500, -64.981614
2033000, -64.796163
2033500, -64.609551
2034000, -64.422925
2034500, -64.235243
2035000, -64.047661
2035500, -63.859143
2036000, -63.670827
2036500, -63.481657
2037000, -63.292776
2037500, -63.103141
2038000, -62.913901
2038500, -62.724005
2039000, -62.534568
2039500, -62.344533
2040000, -62.155030
2040500, -61.965016
2041000, -61.775621
2041500, -61.585755
2042000, -61.396523
2042500, -61.206858
2043000, -61.017880
2043500, -60.828539
2044000, -60.639900
2044500, -60.450861
2045000, -60.262510
2045500, -60.073772
2046000, -59.885753
2046500, -59.697337
2047000, -59.509560
2047500, -59.321306
2048000, -59.133643
2048500, -58.945483
2049000, -58.757883
2049500, -58.569662
2050000, -58.381829
2050500, -58.193251
2051000, -58.004974
2051500, -57.815895
2052000, -57.626941
2052500, -57.436903
2053000, -57.246762
2053500, -57.055362
2054000, -56.863720
2054500, -56.670583
2055000, -56.476826
2055500, -56.281206
2056000, -56.084661
2056500, -55.885998
2057000, -55.686060
2057500, -55.483471
2058000, -55.279043
2058500, -55.071473
2059000, -54.861632
2059500, -54.648066
2060000, -54.431405
2060500, -54.210175
2061000, -53.985079
2061500, -53.754675
2062000, -53.519325
2062500, -53.277301
2063000, -53.029049
2063500, -52.772896
2064000, -52.508886
2064500, -52.234906
2065000, -51.951001
2065500, -51.654978
2066000, -51.346243
2066500, -51.022077
2067000, -50.681866
2067500, -50.322061
2068000, -49.941136
2068500, -49.535192
2069000, -49.101442
2069500, -48.634789
2070000, -48.131045
2070500, -47.583255
2071000, -46.985007
2071500, -46.326718
2072000, -45.598371
2072500, -44.785712
2073000, -43.873674
2073500, -42.841184
2074000, -41.664384
2074500, -40.311284
2075000, -38.744878
2075500, -36.917589
2076000, -34.774667
2076500, -32.250540
2077000, -29.276708
2077500, -25.786991
2078000, -21.740778
2078500, -17.151176
2079000, -12.132381
2079500, -6.934467
2080000, -1.945310
2080500, 2.391073
2081000, 5.707630
2081500, 7.833395
2082000, 8.804433
2082500, 8.795747
2083000, 8.025377
2083500, 6.697516
2084000, 4.974539
2084500, 2.980742
2085000, 0.805251
2085500, -1.485329
2086000, -3.844303
2086500, -6.235777
2087000, -8.635699
2087500, -11.024993
2088000, -13.391844
2088500, -15.726962
2089000, -18.025918
2089500, -20.284747
2090000, -22.504344
2090500, -24.685086
2091000, -26.831228
2091500, -28.946787
2092000, -31.039739
2092500, -33.117905
2093000, -35.192915
2093500, -37.275658
2094000, -39.380152
2094500, -41.518721
2095000, -43.705092
2095500, -45.948596
2096000, -48.255984
2096500, -50.623419
2097000, -53.037213
2097500, -55.465918
2098000, -57.860641
2098500, -60.154701
2099000, -62.274035
2099500, -64.147338
2100000, -65.725990
2100500, -66.989861
2101000, -67.952625
2101500, -68.648886
2102000, -69.126655
2102500, -69.432878
2103000, -69.611008
2103500, -69.694413
2104000, -69.710433
2104500, -69.677395
2105000, -69.610232
2105500, -69.517742
2106000, -69.407847
2106500, -69.284330
2107000, -69.151581
2107500, -69.010923
2108000, -68.865039
2108500, -68.714065
2109000, -68.559866
2109500, -68.402016
2110000, -68.241983
2110500, -68.079070
2111000, -67.914552
2111500, -67.747595
2112000, -67.579374
2112500, -67.408989
2113000, -67.237570
2113500, -67.064185
2114000, -66.889943
2114500, -66.713890
2115000, -66.537116
2115500, -66.358662
2116000, -66.179616
2116500, -65.999018
2117000, -65.817955
2117500, -65.635456
2118000, -65.452597
2118500, -65.268415
2119000, -65.083991
2119500, -64.898366
2120000, -64.712613
2120500, -64.525761
2121000, -64.338880
2121500, -64.151009
2122000, -63.963225
2122500, -63.774567
2123000, -63.586089
2123500, -63.396818
2124000, -63.207818
2124500, -63.018128
2125000, -62.828820
2125500, -62.638903
2126000, -62.449420
2126500, -62.259394
2127000, -62.069882
2127500, -61.879918
2128000, -61.690534
2128500, -61.500724
2129000, -61.311518
2129500, -61.121931
2130000, -60.933010
2130500, -60.743757
2131000, -60.555161
2131500, -60.366204
2132000, -60.177900
2132500, -59.989257
2133000, -59.801299
2133500, -59.612958
2134000, -59.425199
2134500, -59.236991
2135000, -59.049332
2135500, -58.861216
2136000, -58.673572
2136500, -58.485310
2137000, -58.297373
2137500, -58.108710
2138000, -57.920299
2138500, -57.731058
2139000, -57.541844
2139500, -57.351540
2140000, -57.161060
2140500, -56.969331
2141000, -56.777274
2141500, -56.583663
2142000, -56.389315
2142500, -56.193076
2143000, -55.995819
2143500, -55.796432
2144000, -55.595584
2144500, -55.391996
2145000, -55.186422
2145500, -54.977648
2146000, -54.766447
2146500, -54.551348
2147000, -54.332927
2147500, -54.109802
2148000, -53.882613
2148500, -53.649835
2149000, -53.411777
2149500, -53.166804
2150000, -52.915296
2150500, -52.655503
2151000, -52.387348
2151500, -52.108805
2152000, -51.819844
2152500, -51.518064
2153000, -51.202801
2153500, -50.871402
2154000, -50.522858
2154500, -50.153615
2155000, -49.762031
2155500, -49.343768
2156000, -48.895888
2156500, -48.412993
2157000, -47.890369
2157500, -47.320658
2158000, -46.696713
2158500, -46.007920
2159000, -45.243741
2159500, -44.388438
2160000, -43.425088
2160500, -42.330611
2161000, -41.078621
2161500, -39.634338
2162000, -37.956847
2162500, -35.994552
2163000, -33.688434
2163500, -30.970057
2164000, -27.771001
2164500, -24.032844
2165000, -19.734940
2165500, -14.929869
2166000, -9.790318
2166500, -4.632250
2167000, 0.115781
2167500, 4.027894
2168000, 6.815432
2168500, 8.405852
2169000, 8.908771
2169500, 8.529804
2170000, 7.484827
2170500, 5.961284
2171000, 4.102949
2171500, 2.017931
2172000, -0.216549
2172500, -2.542757
2173000, -4.920284
2173500, -7.317948
2174000, -9.715177
2174500, -12.095493
2175000, -14.449085
2175500, -16.768196
2176000, -19.049545
2176500, -21.290346
2177000, -23.492298
2177500, -25.656705
2178000, -27.788589
2178500, -29.892879
2179000, -31.978292
2179500, -34.053399
2180000, -36.130456
2180500, -38.221041
2181000, -40.339403
2181500, -42.497794
2182000, -44.709048
2182500, -46.980767
2183000, -49.316482
2183500, -51.707334
2184000, -54.132855
2184500, -56.553216
2185000, -58.911620
2185500, -61.136088
2186000, -63.152602
2186500, -64.897400
2187000, -66.334794
2187500, -67.459458
2188000, -68.296790
2188500, -68.888195
2189000, -69.283146
2189500, -69.526623
2190000, -69.658524
2190500, -69.708545
2191000, -69.700642
2191500, -69.650568
2192000, -69.571192
2192500, -69.469935
2193000, -69.353620
2193500, -69.225384
2194000, -69.089042
2194500, -68.945644
2195000, -68.797559
2195500, -68.644831
2196000, -68.489136
2196500, -68.330042
2197000, -68.168889
2197500, -68.005012
2198000, -67.839588
2198500, -67.671831
2199000, -67.502834
2199500, -67.331757
2200000, -67.159654
2200500, -66.985660
2201000, -66.810806
2201500, -66.634208
2202000, -66.456881
2202500, -66.277940
2203000, -66.098398
2203500, -65.917370
2204000, -65.735864
2204500, -65.552983
2205000, -65.369731
2205500, -65.185220
2206000, -65.000458
2206500, -64.814560
2207000, -64.628519
2207500, -64.441436
2208000, -64.254314
2208500, -64.066263
2209000, -63.878292
2209500, -63.689498
2210000, -63.500867
2210500, -63.311499
2211000, -63.122392
2211500, -62.932656
2212000, -62.743279
2212500, -62.553341
2213000, -62.363818
2213500, -62.173807
2214000, -61.984295
2214500, -61.794387
2215000, -61.605022
2215500, -61.415274
2216000, -61.226104
2216500, -61.036604
2217000, -60.847751
2217500, -60.658588
2218000, -60.470040
2218500, -60.281168
2219000, -60.092918
2219500, -59.904374
2220000, -59.716451
2220500, -59.528161
2221000, -59.340406
2221500, -59.152234
2222000, -58.964575
2222500, -58.776477
2223000, -58.588774
2223500, -58.400457
2224000, -58.212407
2224500, -58.023653
2225000, -57.835106
2225500, -57.645693
2226000, -57.456214
2226500, -57.265637
2227000, -57.074813
2227500, -56.882749
2228000, -56.690217
2228500, -56.496081
2229000, -56.301101
2229500, -56.104207
2230000, -55.906208
2230500, -55.705966
2231000, -55.504103
2231500, -55.299424
2232000, -55.092627
2232500, -54.882578
2233000, -54.669852
2233500, -54.453075
2234000, -54.232766
2234500, -54.007629
2235000, -53.778241
2235500, -53.542976
2236000, -53.302099
2236500, -53.054059
2237000, -52.799174
2237500, -52.535546
2238000, -52.263050
2238500, -51.979738
2239000, -51.685467
2239500, -51.377654
2240000, -51.055569
2240500, -50.716614
2241000, -50.359320
2241500, -49.980181
2242000, -49.577391
2242500, -49.146192
2243000, -48.683495
2243500, -48.183291
2244000, -47.640645
2244500, -47.047373
2245000, -46.395977
2245500, -45.674699
2246000, -44.871587
2246500, -43.969967
2247000, -42.951184
2247500, -41.789925
2248000, -40.456796
2248500, -38.913534
2249000, -37.115535
2249500, -35.006953
2250000, -32.524953
2250500, -29.599403
2251000, -26.164973
2251500, -22.175355
2252000, -17.638127
2252500, -12.653813
2253000, -7.459451
2253500, -2.429330
2254000, 1.991016
2254500, 5.422804
2255000, 7.670192
2255500, 8.752292
2256000, 8.832707
2256500, 8.130305
2257000, 6.850460
2257500, 5.161870
2258000, 3.190577
2258500, 1.030641
2259000, -1.251012
2259500, -3.604279
2260000, -5.994164
2260500, -8.393573
2261000, -10.784986
2261500, -13.154199
2262000, -15.493176
2262500, -17.795535
2263000, -20.059041
2263500, -22.281986
2264000, -24.466852
2264500, -26.615852
2265000, -28.734771
2265500, -30.829429
2266000, -32.909274
2266500, -34.983685
2267000, -37.065365
2267500, -39.166456
2268000, -41.301304
2268500, -43.481828
2269000, -45.719577
2269500, -48.019864
2270000, -50.382239
2270500, -52.792053
2271000, -55.221393
2271500, -57.621873
2272000, -59.929657
2272500, -62.069611
2273000, -63.971080
2273500, -65.580643
2274000, -66.876640
2274500, -67.867984
2275000, -68.589475
2275500, -69.086609
2276000, -69.408526
2276500, -69.597455
2277000, -69.689532
2277500, -69.710946
2278000, -69.682583
2278500, -69.617934
2279000, -69.528076
2279500, -69.419264
2280000, -69.297378
2280500, -69.165013
2281000, -69.025496
2281500, -68.879652
2282000, -68.729577
2282500, -68.575245
2283000, -68.418167
2283500, -68.257910
2284000, -68.095701
2284500, -67.930909
2285000, -67.764616
2285500, -67.596090
2286000, -67.426343
2286500, -67.254597
2287000, -67.081832
2287500, -66.907246
2288000, -66.731798
2288500, -66.554668
2289000, -66.376805
2289500, -66.197390
2290000, -66.017369
2290500, -65.835926
2291000, -65.653993
2291500, -65.470742
2292000, -65.287114
2292500, -65.102287
2293000, -64.917204
2293500, -64.731038
2294000, -64.544718
2294500, -64.357414
2295000, -64.170063
2295500, -63.981845
2296000, -63.793697
2296500, -63.604777
2297000, -63.416006
2297500, -63.226555
2298000, -63.037354
2298500, -62.847583
2299000, -62.658147
2299500, -62.468197
2300000, -62.278645
2300500, -62.088657
2301000, -61.899158
2301500, -61.709295
2302000, -61.519947
2302500, -61.330259
2303000, -61.141130
2303500, -60.951720
2304000, -60.762924
2304500, -60.573844
2305000, -60.385344
2305500, -60.196555
2306000, -60.008365
2306500, -59.819924
2307000, -59.632042
2307500, -59.443808
2308000, -59.256065
2308500, -59.067933
2309000, -58.880281
2309500, -58.692175
2310000, -58.504396
2310500, -58.316009
2311000, -58.127839
2311500, -57.938986
2312000, -57.750255
2312500, -57.560628
2313000, -57.370857
2313500, -57.179983
2314000, -56.988800
2314500, -56.796378
2315000, -56.603354
2315500, -56.408677
2316000, -56.213055
2316500, -56.015493
2317000, -55.816746
2317500, -55.615640
2318000, -55.412752
2318500, -55.206971
2319000, -54.998941
2319500, -54.787602
2320000, -54.573339
2320500, -54.354863
2321000, -54.132648
2321500, -53.905475
2322000, -53.673711
2322500, -53.435806
2323000, -53.191976
2323500, -52.940744
2324000, -52.682261
2324500, -52.414594
2325000, -52.137566
2325500, -51.849298
2326000, -51.549303
2326500, -51.235068
2327000, -50.905789
2327500, -50.558696
2328000, -50.192086
2328500, -49.802481
2329000, -49.387508
2329500, -48.942401
2330000, -48.463751
2330500, -47.945039
2331000, -47.380939
2331500, -46.762528
2332000, -46.081293
2332500, -45.324965
2333000, -44.480008
2333500, -43.528076
2334000, -42.448410
2334500, -41.213353
2335000, -39.790616
2335500, -38.138440
2336000, -36.207903
2336500, -33.939090
2337000, -31.265902
2337500, -28.118070
2338000, -24.436590
2338500, -20.194384
2339000, -15.435606
2339500, -10.317893
2340000, -5.144124
2340500, -0.333402
2341000, 3.679353
2341500, 6.588136
2342000, 8.296845
2342500, 8.902006
2343000, 8.602005
2343500, 7.615880
2344000, 6.133246
2344500, 4.303853
2345000, 2.237432
2345500, 0.015596
2346000, -2.303726
2346500, -4.677116
2347000, -7.074297
2347500, -9.471868
2348000, -11.854867
2348500, -14.211159
2349000, -16.534343
2349500, -18.819290
2350000, -21.064743
2350500, -23.270018
2351000, -25.438367
2351500, -27.572903
2352000, -29.680179
2352500, -31.766897
2353000, -33.843227
2353500, -35.919316
2354000, -38.008363
2354500, -40.122801
2355000, -42.276886
2355500, -44.481881
2356000, -46.747575
2356500, -49.076342
2357000, -51.462827
2357500, -53.885862
2358000, -56.309510
2358500, -58.676944
2359000, -60.918668
2359500, -62.959064
2360000, -64.734151
2360500, -66.203042
2361000, -67.359165
2361500, -68.223555
2362000, -68.838153
2362500, -69.250462
2363000, -69.507803
2363500, -69.649095
2364000, -69.706658
2364500, -69.703380
2365000, -69.657373
2365500, -69.580139
2366000, -69.481198
2366500, -69.365803
2367000, -69.239026
2367500, -69.103006
2368000, -68.960649
2368500, -68.812591
2369000, -68.660694
2369500, -68.504877
2370000, -68.346505
2370500, -68.185150
2371000, -68.021935
2371500, -67.856263
2372000, -67.689132
2372500, -67.519859
2373000, -67.349385
2373500, -67.176986
2374000, -67.003575
2374500, -66.828411
2375000, -66.652382
2375500, -66.474731
2376000, -66.296345
2376500, -66.116467
2377000, -65.935981
2377500, -65.754127
2378000, -65.571777
2378500, -65.388167
2379000, -65.204174
2379500, -65.019041
2380000, -64.833650
2380500, -64.647227
2381000, -64.460640
2381500, -64.273125
2382000, -64.085559
2382500, -63.897184
2383000, -63.708864
2383500, -63.519822
2384000, -63.330919
2384500, -63.141391
2385000, -62.952108
2385500, -62.762303
2386000, -62.572813
2386500, -62.382855
2387000, -62.193283
2387500, -62.003328
2388000, -61.813852
2388500, -61.624043
2389000, -61.434723
2389500, -61.245104
2390000, -61.056026
2390500, -60.866715
2391000, -60.677973
2391500, -60.488972
2392000, -60.300521
2392500, -60.111818
2393000, -59.923691
2393500, -59.735319
2394000, -59.547457
2394500, -59.359260
2395000, -59.171519
2395500, -58.983420
2396000, -58.795764
2396500, -58.607640
2397000, -58.419778
2397500, -58.231317
2398000, -58.043024
2398500, -57.854070
2399000, -57.665134
2399500, -57.475278
2400000, -57.285201
2400500, -57.094016
2401000, -56.902466
2401500, -56.709603
2402000, -56.516023
2402500, -56.320749
2403000, -56.124439
2403500, -55.926171
2404000, -55.726559
2404500, -55.524488
2405000, -55.320492
2405500, -55.113536
2406000, -54.904210
2406500, -54.691394
2407000, -54.475432
2407500, -54.255115
2408000, -54.030868
2408500, -53.801542
2409000, -53.567276
2409500, -53.326602
2410000, -53.079691
2410500, -52.825136
2411000, -52.562811
2411500, -52.290865
2412000, -52.009067
2412500, -51.715598
2413000, -51.409612
2413500, -51.088662
2414000, -50.751872
2414500, -50.396147
2415000, -50.019703
2415500, -49.619075
2416000, -49.191291
2416500, -48.731569
2417000, -48.235771
2417500, -47.697285
2418000, -47.109846
2418500, -46.464308
2419000, -45.750904
2419500, -44.956285
2420000, -44.065853
2420500, -43.059518
2421000, -41.914232
2421500, -40.599643
2422000, -39.079886
2422500, -37.309531
2423000, -35.235367
2423500, -32.793717
2424000, -29.916335
2424500, -26.535128
2425000, -22.602665
2425500, -18.117736
2426000, -13.170395
2426500, -7.981529
2427000, -2.914694
2427500, 1.587380
2428000, 5.130587
2428500, 7.499840
2429000, 8.692834
2429500, 8.864576
2430000, 8.230548
2430500, 7.000720
2431000, 5.346435
2431500, 3.399151
2432000, 1.254297
2432500, -1.017323
2433000, -3.365528
2433500, -5.752663
2434000, -8.152538
2434500, -10.545012
2435000, -12.917341
2435500, -15.259231
2436000, -17.565757
2436500, -19.832932
2437000, -22.060413
2437500, -24.248470
2438000, -26.401127
2438500, -28.522388
2439000, -30.619571
2439500, -32.700243
2440000, -34.775268
2440500, -36.855503
2441000, -38.954550
2441500, -41.085049
2442000, -43.260824
2442500, -45.492087
2443000, -47.786333
2443500, -50.142282
2444000, -52.548803
2444500, -54.977515
2445000, -57.384195
2445500, -59.704295
2446000, -61.864682
2446500, -63.792366
2447000, -65.432974
2447500, -66.760085
2448000, -67.781168
2448500, -68.527428
2449000, -69.045300
2449500, -69.382443
2450000, -69.583421
2450500, -69.683543
2451000, -69.711447
2451500, -69.687004
2452000, -69.625868
2452500, -69.537819
2453000, -69.431034
2453500, -69.309919
2454000, -69.178857
2454500, -69.039605
2455000, -68.894706
2455500, -68.744644
2456000, -68.591079
2456500, -68.433886
2457000, -68.274302
2457500, -68.111908
2458000, -67.947734
2458500, -67.781216
2459000, -67.613277
2459500, -67.443280
2460000, -67.272099
2460500, -67.099064
2461000, -66.925026
2461500, -66.749293
2462000, -66.572697
2462500, -66.394537
2463000, -66.215642
2463500, -66.035313
2464000, -65.854376
2464500, -65.672123
2465000, -65.489369
2465500, -65.305410
2466000, -65.121066
2466500, -64.935640
2467000, -64.749947
2467500, -64.563274
2468000, -64.376432
2468500, -64.188718
2469000, -64.000949
2469500, -63.812429
2470000, -63.623951
2470500, -63.434798
2471000, -63.245778
2471500, -63.056185
2472000, -62.866833
2472500, -62.676997
2473000, -62.487460
2473500, -62.297502
2474000, -62.107920
2474500, -61.918005
2475000, -61.728542
2475500, -61.538778
2476000, -61.349486
2476500, -61.159936
2477000, -60.970916
2477500, -60.781699
2478000, -60.593012
2478500, -60.404092
2479000, -60.215695
2479500, -60.027082
2480000, -59.839026
2480500, -59.650726
2481000, -59.462887
2481500, -59.274732
2482000, -59.086999
2482500, -58.898937
2483000, -58.711241
2483500, -58.523069
2484000, -58.335106
2484500, -58.146554
2485000, -57.958131
2485500, -57.769037
2486000, -57.579869
2486500, -57.389758
2487000, -57.199359
2487500, -57.007850
2488000, -56.815924
2488500, -56.622611
2489000, -56.428467
2489500, -56.232587
2490000, -56.035584
2490500, -55.836601
2491000, -55.636096
2491500, -55.433034
2492000, -55.227907
2492500, -55.019749
2493000, -54.809106
2493500, -54.594785
2494000, -54.377096
2494500, -54.154906
2495000, -53.928595
2495500, -53.696965
2496000, -53.460061
2496500, -53.216493
2497000, -52.966385
2497500, -52.708333
2498000, -52.441999
2498500, -52.165606
2499000, -51.878871
2499500, -51.579776
2500000, -51.267403
2500500, -53.167159
2501000, -54.814037
2501500, -56.294378
2502000, -57.662359
2502500, -58.956857
2503000, -60.193411
2503500, -61.381550
2504000, -62.516539
2504500, -63.596025
2505000, -64.609784
2505500, -65.554757
2506000, -66.423272
2506500, -67.216601
2507000, -67.931939
2507500, -68.575022
2508000, -69.146572
2508500, -69.654830
2509000, -70.102019
2509500, -70.496988
2510000, -70.841945
2510500, -71.145290
2511000, -71.408539
2511500, -71.639247
2512000, -71.838060
2512500, -72.011675
2513000, -72.159927
2513500, -72.288755
2514000, -72.397314
2514500, -72.490935
2515000, -72.568240
2515500, -72.634080
2516000, -72.686661
2516500, -72.730466
2517000, -72.763380
2517500, -72.789602
2518000, -72.806774
2518500, -72.818878
2519000, -72.823371
2519500, -72.824065
2520000, -72.818277
2520500, -72.809689
2521000, -72.795511
2521500, -72.779325
2522000, -72.758255
2522500, -72.735808
2523000, -72.709045
2523500, -72.681408
2524000, -72.649911
2524500, -72.617948
2525000, -72.582494
2525500, -72.546905
2526000, -72.508126
2526500, -72.469484
2527000, -72.427899
2527500, -72.386672
2528000, -72.342710
2528500, -72.299290
2529000, -72.253305
2529500, -72.208019
2530000, -72.160311
2530500, -72.113430
2531000, -72.064251
2531500, -72.016010
2532000, -71.965574
2532500, -71.916169
2533000, -71.864657
2533500, -71.814256
2534000, -71.761823
2534500, -71.710571
2535000, -71.657355
2535500, -71.605380
2536000, -71.551503
2536500, -71.498920
2537000, -71.444488
2537500, -71.391399
2538000, -71.336509
2538500, -71.283004
2539000, -71.227743
2539500, -71.173906
2540000, -71.118351
2540500, -71.064256
2541000, -71.008479
2541500, -70.954194
2542000, -70.898258
2542500, -70.843838
2543000, -70.787794
2543500, -70.733290
2544000, -70.677188
2544500, -70.622651
2545000, -70.566541
2545500, -70.512017
2546000, -70.455946
2546500, -70.401482
2547000, -70.345493
2547500, -70.291132
2548000, -70.235267
2548500, -70.181049
2549000, -70.125349
2549500, -70.071313
2550000, -70.015814
2550500, -69.961995
2551000, -69.906730
2551500, -69.853154
2552000, -69.798144
2552500, -69.744832
2553000, -69.690100
2553500, -69.637079
2554000, -69.582651
2554500, -69.529945
2555000, -69.475847
2555500, -69.423484
2556000, -69.369743
2556500, -69.317747
2557000, -69.264387
2557500, -69.212785
2558000, -69.159831
2558500, -69.108644
2559000, -69.056120
2559500, -69.005372
2560000, -68.953299
2560500, -68.903008
2561000, -68.851392
2561500, -68.801560
2562000, -68.750409
2562500, -68.701045
2563000, -68.650370
2563500, -68.601488
2564000, -68.551303
2564500, -68.502916
2565000, -68.453237
2565500, -68.405362
2566000, -68.356203
2566500, -68.308855
2567000, -68.260233
2567500, -68.213428
2568000, -68.165356
2568500, -68.119109
2569000, -68.071604
2569500, -68.025928
2570000, -67.979002
2570500, -67.933908
2571000, -67.887563
2571500, -67.843042
2572000, -67.797270
2572500, -67.753321
2573000, -67.708121
2573500, -67.664745
2574000, -67.620123
2574500, -67.577328
2575000, -67.533291
2575500, -67.491084
2576000, -67.447642
2576500, -67.406032
2577000, -67.363193
2577500, -67.322190
2578000, -67.279963
2578500, -67.239576
2579000, -67.197972
2579500, -67.158211
2580000, -67.117238
2580500, -67.078111
2581000, -67.037778
2581500, -66.999294
2582000, -66.959609
2582500, -66.921768
2583000, -66.882716
2583500, -66.845498
2584000, -66.807065
2584500, -66.770462
2585000, -66.732645
2585500, -66.696656
2586000, -66.659453
2586500, -66.624079
2587000, -66.587495
2587500, -66.552740
2588000, -66.516779
2588500, -66.482648
2589000, -66.447316
2589500, -66.413816
2590000, -66.379118
2590500, -66.346254
2591000, -66.312197
2591500, -66.279976
2592000, -66.246566
2592500, -66.214993
2593000, -66.182236
2593500, -66.151317
2594000, -66.119218
2594500, -66.088960
2595000, -66.057525
2595500, -66.027932
2596000, -65.997165
2596500, -65.968241
2597000, -65.938138
2597500, -65.909863
2598000, -65.880400
2598500, -65.852756
2599000, -65.823922
2599500, -65.796902
2600000, -65.768689
2600500, -65.742289
2601000, -65.714698
2601500, -65.688918
2602000, -65.661949
2602500, -65.636790
2603000, -65.610446
2603500, -65.585912
2604000, -65.560195
2604500, -65.536289
2605000, -65.511203
2605500, -65.487929
2606000, -65.463477
2606500, -65.440838
2607000, -65.417025
2607500, -65.395024
2608000, -65.371851
2608500, -65.350492
2609000, -65.327964
2609500, -65.307249
2610000, -65.285367
2610500, -65.265299
2611000, -65.244066
2611500, -65.224646
2612000, -65.204064
2612500, -65.185294
2613000, -65.165364
2613500, -65.147245
2614000, -65.127968
2614500, -65.110501
2615000, -65.091877
2615500, -65.075063
2616000, -65.057092
2616500, -65.040930
2617000, -65.023612
2617500, -65.008100
2618000, -64.991434
2618500, -64.976569
2619000, -64.960540
2619500, -64.946301
2620000, -64.930891
2620500, -64.917262
2621000, -64.902458
2621500, -64.889429
2622000, -64.875223
2622500, -64.862788
2623000, -64.849174
2623500, -64.837328
2624000, -64.824303
2624500, -64.813042
2625000, -64.800601
2625500, -64.789922
2626000, -64.778062
2626500, -64.767962
2627000, -64.756681
2627500, -64.747156
2628000, -64.736449
2628500, -64.727496
2629000, -64.717360
2629500, -64.708974
2630000, -64.699406
2630500, -64.691582
2631000, -64.682575
2631500, -64.675310
2632000, -64.666860
2632500, -64.660147
2633000, -64.652247
2633500, -64.646081
2634000, -64.638726
2634500, -64.633100
2635000, -64.626282
2635500, -64.621188
2636000, -64.614900
2636500, -64.610332
2637000, -64.604566
2637500, -64.600515
2638000, -64.595263
2638500, -64.591719
2639000, -64.586972
2639500, -64.583927
2640000, -64.579676
2640500, -64.577120
2641000, -64.573354
2641500, -64.571277
2642000, -64.567985
2642500, -64.566376
2643000, -64.563548
2643500, -64.562397
2644000, -64.560021
2644500, -64.559315
2645000, -64.557380
2645500, -64.557107
2646000, -64.555601
2646500, -64.555749
2647000, -64.554658
2647500, -64.555214
2648000, -64.554526
2648500, -64.555477
2649000, -64.555179
2649500, -64.556511
2650000, -64.556588
2650500, -64.558288
2651000, -64.558728
2651500, -64.560781
2652000, -64.561568
2652500, -64.563961
2653000, -64.565081
2653500, -64.567799
2654000, -64.569238
2654500, -64.572266
2655000, -64.574009
2655500, -64.577332
2656000, -64.579365
2656500, -64.582968
2657000, -64.585274
2657500, -64.589143
2658000, -64.591708
2658500, -64.595828
2659000, -64.598637
2659500, -64.602991
2660000, -64.606029
2660500, -64.610603
2661000, -64.613855
2661500, -64.618634
2662000, -64.622085
2662500, -64.627054
2663000, -64.630688
2663500, -64.635833
2664000, -64.639635
2664500, -64.644940
2665000, -64.648897
2665500, -64.654348
2666000, -64.658445
2666500, -64.664027
2667000, -64.668249
2667500, -64.673948
2668000, -64.678282
2668500, -64.684084
2669000, -64.688515
2669500, -64.694407
2670000, -64.698922
2670500, -64.704890
2671000, -64.709476
2671500, -64.715507
2672000, -64.720150
2672500, -64.726231
2673000, -64.730920
2673500, -64.737039
2674000, -64.741760
2674500, -64.747905
2675000, -64.752647
2675500, -64.758806
2676000, -64.763558
2676500, -64.769719
2677000, -64.774470
2677500, -64.780623
2678000, -64.785362
2678500, -64.791496
2679000, -64.796212
2679500, -64.802318
2680000, -64.807002
2680500, -64.813070
2681000, -64.817712
2681500, -64.823733
2682000, -64.828324
2682500, -64.834289
2683000, -64.838821
2683500, -64.844721
2684000, -64.849187
2684500, -64.855015
2685000, -64.859405
2685500, -64.865154
2686000, -64.869463
2686500, -64.875125
2687000, -64.879346
2687500, -64.884915
2688000, -64.889041
2688500, -64.894512
2689000, -64.898537
2689500, -64.903903
2690000, -64.907822
2690500, -64.913079
2691000, -64.916888
2691500, -64.922031
2692000, -64.925724
2692500, -64.930748
2693000, -64.934323
2693500, -64.939224
2694000, -64.942676
2694500, -64.947452
2695000, -64.950777
2695500, -64.955424
2696000, -64.958621
2696500, -64.963136
2697000, -64.966201
2697500, -64.970583
2698000, -64.973514
2698500, -64.977761
2699000, -64.980557
2699500, -64.984666
2700000, -64.987325
2700500, -64.991296
2701000, -64.993817
2701500, -64.997649
2702000, -65.000032
2702500, -65.003723
2703000, -65.005966
2703500, -65.009514
2704000, -65.011612
2704500, -65.015013
2705000, -65.016965
2705500, -65.020219
2706000, -65.022024
2706500, -65.025130
2707000, -65.026790
2707500, -65.029749
2708000, -65.031264
2708500, -65.034078
2709000, -65.035449
2709500, -65.038119
2710000, -65.039349
2710500, -65.041878
2711000, -65.042969
2711500, -65.045360
2712000, -65.046314
2712500, -65.048568
2713000, -65.049388
2713500, -65.051509
2714000, -65.052198
2714500, -65.054188
2715000, -65.054749
2715500, -65.056612
2716000, -65.057048
2716500, -65.058786
2717000, -65.059102
2717500, -65.060719
2718000, -65.060916
2718500, -65.062415
2719000, -65.062497
2719500, -65.063882
2720000, -65.063854
2720500, -65.065128
2721000, -65.064992
2721500, -65.066159
2722000, -65.065919
2722500, -65.066983
2723000, -65.066642
2723500, -65.067607
2724000, -65.067169
2724500, -65.068037
2725000, -65.067507
2725500, -65.068283
2726000, -65.067663
2726500, -65.068351
2727000, -65.067646
2727500, -65.068249
2728000, -65.067462
2728500, -65.067984
2729000, -65.067118
2729500, -65.067563
2730000, -65.066623
2730500, -65.066994
2731000, -65.065984
2731500, -65.066285
2732000, -65.065208
2732500, -65.065442
2733000, -65.064302
2733500, -65.064474
2734000, -65.063273
2734500, -65.063386
2735000, -65.062129
2735500, -65.062186
2736000, -65.060876
2736500, -65.060881
2737000, -65.059522
2737500, -65.059478
2738000, -65.058073
2738500, -65.057984
2739000, -65.056536
2739500, -65.056405
2740000, -65.054918
2740500, -65.054747
2741000, -65.053224
2741500, -65.053018
2742000, -65.051461
2742500, -65.051222
2743000, -65.049636
2743500, -65.049367
2744000, -65.047754
2744500, -65.047458
2745000, -65.045821
2745500, -65.045501
2746000, -65.043842
2746500, -65.043502
2747000, -65.041824
2747500, -65.041465
2748000, -65.039772
2748500, -65.039397
2749000, -65.037690
2749500, -65.037302
2750000, -65.035584
2750500, -65.035185
2751000, -65.033459
2751500, -65.033051
2752000, -65.031319
2752500, -65.030905
2753000, -65.029168
2753500, -65.028751
2754000, -65.027012
2754500, -65.026593
2755000, -65.024855
2755500, -65.024435
2756000, -65.022699
2756500, -65.022282
2757000, -65.020550
2757500, -65.020136
2758000, -65.018410
2758500, -65.018003
2759000, -65.016284
2759500, -65.015884
2760000, -65.014174
2760500, -65.013783
2761000, -65.012084
2761500, -65.011703
2762000, -65.010017
2762500, -65.009647
2763000, -65.007975
2763500, -65.007619
2764000, -65.005961
2764500, -65.005619
2765000, -65.003977
2765500, -65.003651
2766000, -65.002027
2766500, -65.001718
2767000, -65.000112
2767500, -64.999820
2768000, -64.998233
2768500, -64.997960
2769000, -64.996391
2769500, -64.996136
2770000, -64.994586
2770500, -64.994349
2771000, -64.992819
2771500, -64.992599
2772000, -64.991089
2772500, -64.990888
2773000, -64.989398
2773500, -64.989217
2774000, -64.987748
2774500, -64.987587
2775000, -64.986139
2775500, -64.985998
2776000, -64.984573
2776500, -64.984453
2777000, -64.983050
2777500, -64.982953
2778000, -64.981572
2778500, -64.981497
2779000, -64.980140
2779500, -64.980087
2780000, -64.978754
2780500, -64.978724
2781000, -64.977416
2781500, -64.977409
2782000, -64.976124
2782500, -64.976141
2783000, -64.974881
2783500, -64.974921
2784000, -64.973686
2784500, -64.973751
2785000, -64.972540
2785500, -64.972628
2786000, -64.971443
2786500, -64.971555
2787000, -64.970395
2787500, -64.970531
2788000, -64.969396
2788500, -64.969556
2789000, -64.968446
2789500, -64.968629
2790000, -64.967544
2790500, -64.967751
2791000, -64.966691
2791500, -64.966922
2792000, -64.965886
2792500, -64.966140
2793000, -64.965128
2793500, -64.965406
2794000, -64.964418
2794500, -64.964719
2795000, -64.963755
2795500, -64.964078
2796000, -64.963138
2796500, -64.963483
2797000, -64.962566
2797500, -64.962933
2798000, -64.962039
2798500, -64.962427
2799000, -64.961555
2799500, -64.961965
2800000, -64.961115
2800500, -64.961546
2801000, -64.960718
2801500, -64.961168
2802000, -64.960361
2802500, -64.960832
2803000, -64.960045
2803500, -64.960535
2804000, -64.959769
2804500, -64.960277
2805000, -64.959531
2805500, -64.960058
2806000, -64.959330
2806500, -64.959875
2807000, -64.959165
2807500, -64.959727
2808000, -64.959036
2808500, -64.959615
2809000, -64.958941
2809500, -64.959535
2810000, -64.958879
2810500, -64.959489
2811000, -64.958848
2811500, -64.959473
2812000, -64.958848
2812500, -64.959487
2813000, -64.958878
2813500, -64.959531
2814000, -64.958935
2814500, -64.959601
2815000, -64.959020
2815500, -64.959699
2816000, -64.959130
2816500, -64.959821
2817000, -64.959266
2817500, -64.959968
2818000, -64.959424
2818500, -64.960137
2819000, -64.959605
2819500, -64.960328
2820000, -64.959806
2820500, -64.960539
2821000, -64.960028
2821500, -64.960769
2822000, -64.960268
2822500, -64.961018
2823000, -64.960526
2823500, -64.961283
2824000, -64.960800
2824500, -64.961565
2825000, -64.961089
2825500, -64.961860
2826000, -64.961392
2826500, -64.962170
2827000, -64.961708
2827500, -64.962491
2828000, -64.962036
2828500, -64.962824
2829000, -64.962375
2829500, -64.963168
2830000, -64.962724
2830500, -64.963520
2831000, -64.963081
2831500, -64.963881
2832000, -64.963446
2832500, -64.964249
2833000, -64.963817
2833500, -64.964623
2834000, -64.964195
2834500, -64.965002
2835000, -64.964577
2835500, -64.965386
2836000, -64.964963
2836500, -64.965773
2837000, -64.965352
2837500, -64.966163
2838000, -64.965744
2838500, -64.966555
2839000, -64.966136
2839500, -64.966947
2840000, -64.966530
2840500, -64.967340
2841000, -64.966923
2841500, -64.967732
2842000, -64.967315
2842500, -64.968123
2843000, -64.967706
2843500, -64.968512
2844000, -64.968094
2844500, -64.968899
2845000, -64.968479
2845500, -64.969282
2846000, -64.968861
2846500, -64.969661
2847000, -64.969239
2847500, -64.970036
2848000, -64.969612
2848500, -64.970406
2849000, -64.969980
2849500, -64.970770
2850000, -64.970342
2850500, -64.971129
2851000, -64.970698
2851500, -64.971481
2852000, -64.971047
2852500, -64.971826
2853000, -64.971389
2853500, -64.972164
2854000, -64.971724
2854500, -64.972495
2855000, -64.972051
2855500, -64.972817
2856000, -64.972370
2856500, -64.973132
2857000, -64.972681
2857500, -64.973438
2858000, -64.972983
2858500, -64.973735
2859000, -64.973276
2859500, -64.974023
2860000, -64.973560
2860500, -64.974302
2861000, -64.973834
2861500, -64.974571
2862000, -64.974099
2862500, -64.974831
2863000, -64.974355
2863500, -64.975081
2864000, -64.974601
2864500, -64.975322
2865000, -64.974837
2865500, -64.975552
2866000, -64.975063
2866500, -64.975773
2867000, -64.975279
2867500, -64.975983
2868000, -64.975485
2868500, -64.976184
2869000, -64.975681
2869500, -64.976375
2870000, -64.975867
2870500, -64.976555
2871000, -64.976044
2871500, -64.976726
2872000, -64.976210
2872500, -64.976886
2873000, -64.976366
2873500, -64.977037
2874000, -64.976512
2874500, -64.977178
2875000, -64.976649
2875500, -64.977310
2876000, -64.976776
2876500, -64.977431
2877000, -64.976894
2877500, -64.977544
2878000, -64.977002
2878500, -64.977647
2879000, -64.977101
2879500, -64.977740
2880000, -64.977190
2880500, -64.977825
2881000, -64.977271
2881500, -64.977901
2882000, -64.977343
2882500, -64.977968
2883000, -64.977407
2883500, -64.978027
2884000, -64.977462
2884500, -64.978078
2885000, -64.977509
2885500, -64.978120
2886000, -64.977548
2886500, -64.978155
2887000, -64.977579
2887500, -64.978181
2888000, -64.977603
2888500, -64.978201
2889000, -64.977619
2889500, -64.978213
2890000, -64.977628
2890500, -64.978219
2891000, -64.977631
2891500, -64.978217
2892000, -64.977626
2892500, -64.978209
2893000, -64.977616
2893500, -64.978195
2894000, -64.977599
2894500, -64.978175
2895000, -64.977577
2895500, -64.978149
2896000, -64.977549
2896500, -64.978118
2897000, -64.977515
2897500, -64.978081
2898000, -64.977476
2898500, -64.978040
2899000, -64.977433
2899500, -64.977993
2900000, -64.977385
2900500, -64.977942
2901000, -64.977332
2901500, -64.977887
2902000, -64.977276
2902500, -64.977828
2903000, -64.977215
2903500, -64.977765
2904000, -64.977151
2904500, -64.977699
2905000, -64.977083
2905500, -64.977630
2906000, -64.977013
2906500, -64.977557
2907000, -64.976939
2907500, -64.977481
2908000, -64.976863
2908500, -64.977403
2909000, -64.976784
2909500, -64.977323
2910000, -64.976703
2910500, -64.977241
2911000, -64.976620
2911500, -64.977156
2912000, -64.976535
2912500, -64.977070
2913000, -64.976449
2913500, -64.976982
2914000, -64.976361
2914500, -64.976894
2915000, -64.976272
2915500, -64.976804
2916000, -64.976182
2916500, -64.976713
2917000, -64.976092
2917500, -64.976621
2918000, -64.976000
2918500, -64.976529
2919000, -64.975909
2919500, -64.976437
2920000, -64.975817
2920500, -64.976344
2921000, -64.975724
2921500, -64.976252
2922000, -64.975632
2922500, -64.976159
2923000, -64.975540
2923500, -64.976067
2924000, -64.975449
2924500, -64.975975
2925000, -64.975358
2925500, -64.975884
2926000, -64.975268
2926500, -64.975794
2927000, -64.975178
2927500, -64.975704
2928000, -64.975090
2928500, -64.975616
2929000, -64.975002
2929500, -64.975528
2930000, -64.974916
2930500, -64.975442
2931000, -64.974830
2931500, -64.975357
2932000, -64.974746
2932500, -64.975273
2933000, -64.974664
2933500, -64.975191
2934000, -64.974583
2934500, -64.975110
2935000, -64.974504
2935500, -64.975031
2936000, -64.974426
2936500, -64.974954
2937000, -64.974350
2937500, -64.974878
2938000, -64.974276
2938500, -64.974805
2939000, -64.974204
2939500, -64.974733
2940000, -64.974133
2940500, -64.974663
2941000, -64.974065
2941500, -64.974595
2942000, -64.973999
2942500, -64.974530
2943000, -64.973935
2943500, -64.974466
2944000, -64.973872
2944500, -64.974404
2945000, -64.973812
2945500, -64.974345
2946000, -64.973754
2946500, -64.974287
2947000, -64.973698
2947500, -64.974232
2948000, -64.973645
2948500, -64.974179
2949000, -64.973593
2949500, -64.974128
2950000, -64.973544
2950500, -64.974080
2951000, -64.973497
2951500, -64.974033
2952000, -64.973452
2952500, -64.973989
2953000, -64.973409
2953500, -64.973947
2954000, -64.973369
2954500, -64.973907
2955000, -64.973330
2955500, -64.973869
2956000, -64.973294
2956500, -64.973833
2957000, -64.973260
2957500, -64.973799
2958000, -64.973227
2958500, -64.973768
2959000, -64.973197
2959500, -64.973738
2960000, -64.973169
2960500, -64.973711
2961000, -64.973143
2961500, -64.973685
2962000, -64.973119
2962500, -64.973662
2963000, -64.973097
2963500, -64.973640
2964000, -64.973077
2964500, -64.973620
2965000, -64.973058
2965500, -64.973602
2966000, -64.973041
2966500, -64.973586
2967000, -64.973027
2967500, -64.973571
2968000, -64.973013
2968500, -64.973559
2969000, -64.973002
2969500, -64.973547
2970000, -64.972992
2970500, -64.973538
2971000, -64.972984
2971500, -64.973530
2972000, -64.972977
2972500, -64.973524
2973000, -64.972972
2973500, -64.973519
2974000, -64.972968
2974500, -64.973515
2975000, -64.972966
2975500, -64.973513
2976000, -64.972965
2976500, -64.973512
2977000, -64.972965
2977500, -64.973512
2978000, -64.972966
2978500, -64.973514
2979000, -64.972969
2979500, -64.973516
2980000, -64.972972
2980500, -64.973520
2981000, -64.972977
2981500, -64.973525
2982000, -64.972983
2982500, -64.973531
2983000, -64.972989
2983500, -64.973537
2984000, -64.972997
2984500, -64.973545
2985000, -64.973005
2985500, -64.973553
2986000, -64.973015
2986500, -64.973562
2987000, -64.973025
2987500, -64.973572
2988000, -64.973035
2988500, -64.973583
2989000, -64.973047
2989500, -64.973594
2990000, -64.973059
2990500, -64.973606
2991000, -64.973071
2991500, -64.973618
2992000, -64.973084
2992500, -64.973631
2993000, -64.973097
2993500, -64.973644
2994000, -64.973111
2994500, -64.973657
2995000, -64.973125
2995500, -64.973671
2996000, -64.973140
2996500, -64.973686
2997000, -64.973155
2997500, -64.973700
2998000, -64.973170
2998500, -64.973715
2999000, -64.973185
2999500, -64.973730
3000000, -64.973201
