# ./result/hh_impl_0500.txt
# dt = 500 [usec]
# t [usec], V [mV]
0, -65.000000
500, -64.998509
1000, -64.997063
1500, -64.995655
2000, -64.994282
2500, -64.992940
3000, -64.991626
3500, -64.990338
4000, -64.989074
4500, -64.987833
5000, -64.986614
5500, -64.985416
6000, -64.984239
6500, -64.983081
7000, -64.981943
7500, -64.980824
8000, -64.979724
8500, -64.978643
9000, -64.977581
9500, -64.976538
10000, -64.975513
10500, -64.974508
11000, -64.973521
11500, -64.972553
12000, -64.971604
12500, -64.970673
13000, -64.969762
13500, -64.968869
14000, -64.967995
14500, -64.967140
15000, -64.966305
15500, -64.965488
16000, -64.964690
16500, -64.963911
17000, -64.963150
17500, -64.962409
18000, -64.961687
18500, -64.960983
19000, -64.960299
19500, -64.959633
20000, -64.958986
20500, -64.958357
21000, -64.957747
21500, -64.957156
22000, -64.956582
22500, -64.956028
23000, -64.955491
23500, -64.954973
24000, -64.954473
24500, -64.953990
25000, -64.953526
25500, -64.953079
26000, -64.952649
26500, -64.952237
27000, -64.951843
27500, -64.951465
28000, -64.951105
28500, -64.950761
29000, -64.950434
29500, -64.950123
30000, -64.949829
30500, -64.949551
31000, -64.949289
31500, -64.949043
32000, -64.948812
32500, -64.948597
33000, -64.948397
33500, -64.948212
34000, -64.948042
34500, -64.947887
35000, -64.947746
35500, -64.947619
36000, -64.947506
36500, -64.947408
37000, -64.947322
37500, -64.947251
38000, -64.947192
38500, -64.947146
39000, -64.947114
39500, -64.947093
40000, -64.947085
40500, -64.947089
41000, -64.947105
41500, -64.947132
42000, -64.947171
42500, -64.947221
43000, -64.947282
43500, -64.947354
44000, -64.947436
44500, -64.947528
45000, -64.947631
45500, -64.947743
46000, -64.947865
46500, -64.947996
47000, -64.948136
47500, -64.948284
48000, -64.948442
48500, -64.948608
49000, -64.948782
49500, -64.948964
50000, -64.949153
50500, -64.949350
51000, -64.949554
51500, -64.949766
52000, -64.949984
52500, -64.950208
53000, -64.950439
53500, -64.950676
54000, -64.950919
54500, -64.951168
55000, -64.951422
55500, -64.951681
56000, -64.951945
56500, -64.952214
57000, -64.952488
57500, -64.952766
58000, -64.953048
58500, -64.953334
59000, -64.953624
59500, -64.953917
60000, -64.954214
60500, -64.954514
61000, -64.954817
61500, -64.955122
62000, -64.955431
62500, -64.955741
63000, -64.956054
63500, -64.956369
64000, -64.956686
64500, -64.957004
65000, -64.957324
65500, -64.957645
66000, -64.957968
66500, -64.958291
67000, -64.958615
67500, -64.958940
68000, -64.959266
68500, -64.959591
69000, -64.959917
69500, -64.960243
70000, -64.960569
70500, -64.960894
71000, -64.961219
71500, -64.961544
72000, -64.961868
72500, -64.962191
73000, -64.962513
73500, -64.962834
74000, -64.963154
74500, -64.963473
75000, -64.963790
75500, -64.964106
76000, -64.964419
76500, -64.964732
77000, -64.965042
77500, -64.965350
78000, -64.965656
78500, -64.965960
79000, -64.966262
79500, -64.966561
80000, -64.966858
80500, -64.967153
81000, -64.967444
81500, -64.967733
82000, -64.968019
82500, -64.968303
83000, -64.968583
83500, -64.968860
84000, -64.969135
84500, -64.969406
85000, -64.969673
85500, -64.969938
86000, -64.970199
86500, -64.970457
87000, -64.970711
87500, -64.970962
88000, -64.971209
88500, -64.971453
89000, -64.971693
89500, -64.971930
90000, -64.972162
90500, -64.972391
91000, -64.972616
91500, -64.972838
92000, -64.973055
92500, -64.973269
93000, -64.973479
93500, -64.973685
94000, -64.973887
94500, -64.974085
95000, -64.974279
95500, -64.974469
96000, -64.974655
96500, -64.974837
97000, -64.975015
97500, -64.975189
98000, -64.975360
98500, -64.975526
99000, -64.975688
99500, -64.975846
100000, -64.976000
100500, -64.976150
101000, -64.976296
101500, -64.976438
102000, -64.976577
102500, -64.976711
103000, -64.976841
103500, -64.976968
104000, -64.977090
104500, -64.977209
105000, -64.977323
105500, -64.977434
106000, -64.977541
106500, -64.977645
107000, -64.977744
107500, -64.977840
108000, -64.977932
108500, -64.978020
109000, -64.978105
109500, -64.978186
110000, -64.978264
110500, -64.978338
111000, -64.978408
111500, -64.978475
112000, -64.978538
112500, -64.978598
113000, -64.978655
113500, -64.978708
114000, -64.978758
114500, -64.978805
115000, -64.978848
115500, -64.978889
116000, -64.978926
116500, -64.978960
117000, -64.978991
117500, -64.979019
118000, -64.979044
118500, -64.979066
119000, -64.979085
119500, -64.979102
120000, -64.979115
120500, -64.979126
121000, -64.979134
121500, -64.979140
122000, -64.979143
122500, -64.979143
123000, -64.979141
123500, -64.979137
124000, -64.979130
124500, -64.979121
125000, -64.979109
125500, -64.979095
126000, -64.979079
126500, -64.979061
127000, -64.979041
127500, -64.979018
128000, -64.978994
128500, -64.978968
129000, -64.978939
129500, -64.978909
130000, -64.978877
130500, -64.978843
131000, -64.978808
131500, -64.978771
132000, -64.978732
132500, -64.978692
133000, -64.978650
133500, -64.978607
134000, -64.978562
134500, -64.978516
135000, -64.978469
135500, -64.978420
136000, -64.978370
136500, -64.978319
137000, -64.978267
137500, -64.978213
138000, -64.978159
138500, -64.978103
139000, -64.978047
139500, -64.977989
140000, -64.977931
140500, -64.977872
141000, -64.977812
141500, -64.977752
142000, -64.977690
142500, -64.977628
143000, -64.977566
143500, -64.977502
144000, -64.977439
144500, -64.977374
145000, -64.977309
145500, -64.977244
146000, -64.977179
146500, -64.977113
147000, -64.977046
147500, -64.976980
148000, -64.976913
148500, -64.976846
149000, -64.976779
149500, -64.976711
150000, -64.976644
150500, -64.976576
151000, -64.976509
151500, -64.976441
152000, -64.976373
152500, -64.976306
153000, -64.976238
153500, -64.976171
154000, -64.976104
154500, -64.976036
155000, -64.975969
155500, -64.975903
156000, -64.975836
156500, -64.975770
157000, -64.975704
157500, -64.975638
158000, -64.975573
158500, -64.975508
159000, -64.975444
159500, -64.975380
160000, -64.975316
160500, -64.975253
161000, -64.975190
161500, -64.975127
162000, -64.975066
162500, -64.975004
163000, -64.974944
163500, -64.974883
164000, -64.974824
164500, -64.974765
165000, -64.974706
165500, -64.974649
166000, -64.974591
166500, -64.974535
167000, -64.974479
167500, -64.974424
168000, -64.974370
168500, -64.974316
169000, -64.974263
169500, -64.974210
170000, -64.974159
170500, -64.974108
171000, -64.974058
171500, -64.974008
172000, -64.973960
172500, -64.973912
173000, -64.973865
173500, -64.973819
174000, -64.973773
174500, -64.973729
175000, -64.973685
175500, -64.973642
176000, -64.973600
176500, -64.973558
177000, -64.973518
177500, -64.973478
178000, -64.973439
178500, -64.973401
179000, -64.973364
179500, -64.973327
180000, -64.973292
180500, -64.973257
181000, -64.973223
181500, -64.973190
182000, -64.973158
182500, -64.973126
183000, -64.973096
183500, -64.973066
184000, -64.973037
184500, -64.973009
185000, -64.972981
185500, -64.972955
186000, -64.972929
186500, -64.972904
187000, -64.972880
187500, -64.972857
188000, -64.972835
188500, -64.972813
189000, -64.972792
189500, -64.972772
190000, -64.972753
190500, -64.972734
191000, -64.972716
191500, -64.972699
192000, -64.972683
192500, -64.972667
193000, -64.972653
193500, -64.972638
194000, -64.972625
194500, -64.972612
195000, -64.972601
195500, -64.972589
196000, -64.972579
196500, -64.972569
197000, -64.972560
197500, -64.972551
198000, -64.972543
198500, -64.972536
199000, -64.972530
199500, -64.972524
200000, -64.972518
200500, -64.972514
201000, -64.972510
201500, -64.972506
202000, -64.972503
202500, -64.972501
203000, -64.972499
203500, -64.972498
204000, -64.972497
204500, -64.972497
205000, -64.972498
205500, -64.972498
206000, -64.972500
206500, -64.972502
207000, -64.972504
207500, -64.972507
208000, -64.972510
208500, -64.972514
209000, -64.972518
209500, -64.972523
210000, -64.972528
210500, -64.972534
211000, -64.972540
211500, -64.972546
212000, -64.972553
212500, -64.972560
213000, -64.972567
213500, -64.972575
214000, -64.972583
214500, -64.972591
215000, -64.972600
215500, -64.972609
216000, -64.972619
216500, -64.972628
217000, -64.972638
217500, -64.972649
218000, -64.972659
218500, -64.972670
219000, -64.972681
219500, -64.972692
220000, -64.972704
220500, -64.972715
221000, -64.972727
221500, -64.972739
222000, -64.972751
222500, -64.972764
223000, -64.972777
223500, -64.972789
224000, -64.972802
224500, -64.972815
225000, -64.972829
225500, -64.972842
226000, -64.972855
226500, -64.972869
227000, -64.972883
227500, -64.972896
228000, -64.972910
228500, -64.972924
229000, -64.972938
229500, -64.972952
230000, -64.972966
230500, -64.972980
231000, -64.972995
231500, -64.973009
232000, -64.973023
232500, -64.973037
233000, -64.973052
233500, -64.973066
234000, -64.973080
234500, -64.973095
235000, -64.973109
235500, -64.973123
236000, -64.973137
236500, -64.973152
237000, -64.973166
237500, -64.973180
238000, -64.973194
238500, -64.973208
239000, -64.973222
239500, -64.973236
240000, -64.973250
240500, -64.973263
241000, -64.973277
241500, -64.973291
242000, -64.973304
242500, -64.973318
243000, -64.973331
243500, -64.973344
244000, -64.973357
244500, -64.973370
245000, -64.973383
245500, -64.973396
246000, -64.973409
246500, -64.973421
247000, -64.973434
247500, -64.973446
248000, -64.973458
248500, -64.973470
249000, -64.973482
249500, -64.973494
250000, -64.973505
250500, -64.973517
251000, -64.973528
251500, -64.973539
252000, -64.973550
252500, -64.973561
253000, -64.973572
253500, -64.973582
254000, -64.973593
254500, -64.973603
255000, -64.973613
255500, -64.973623
256000, -64.973632
256500, -64.973642
257000, -64.973651
257500, -64.973660
258000, -64.973669
258500, -64.973678
259000, -64.973687
259500, -64.973696
260000, -64.973704
260500, -64.973712
261000, -64.973720
261500, -64.973728
262000, -64.973736
262500, -64.973743
263000, -64.973750
263500, -64.973757
264000, -64.973764
264500, -64.973771
265000, -64.973778
265500, -64.973784
266000, -64.973790
266500, -64.973796
267000, -64.973802
267500, -64.973808
268000, -64.973814
268500, -64.973819
269000, -64.973824
269500, -64.973829
270000, -64.973834
270500, -64.973839
271000, -64.973843
271500, -64.973848
272000, -64.973852
272500, -64.973856
273000, -64.973860
273500, -64.973864
274000, -64.973867
274500, -64.973871
275000, -64.973874
275500, -64.973877
276000, -64.973880
276500, -64.973883
277000, -64.973886
277500, -64.973888
278000, -64.973890
278500, -64.973893
279000, -64.973895
279500, -64.973897
280000, -64.973899
280500, -64.973900
281000, -64.973902
281500, -64.973903
282000, -64.973904
282500, -64.973906
283000, -64.973907
283500, -64.973907
284000, -64.973908
284500, -64.973909
285000, -64.973909
285500, -64.973910
286000, -64.973910
286500, -64.973910
287000, -64.973910
287500, -64.973910
288000, -64.973910
288500, -64.973910
289000, -64.973909
289500, -64.973909
290000, -64.973908
290500, -64.973908
291000, -64.973907
291500, -64.973906
292000, -64.973905
292500, -64.973904
293000, -64.973903
293500, -64.973902
294000, -64.973901
294500, -64.973899
295000, -64.973898
295500, -64.973896
296000, -64.973895
296500, -64.973893
297000, -64.973891
297500, -64.973890
298000, -64.973888
298500, -64.973886
299000, -64.973884
299500, -64.973882
300000, -64.973880
300500, -64.973878
301000, -64.973875
301500, -64.973873
302000, -64.973871
302500, -64.973868
303000, -64.973866
303500, -64.973864
304000, -64.973861
304500, -64.973859
305000, -64.973856
305500, -64.973853
306000, -64.973851
306500, -64.973848
307000, -64.973846
307500, -64.973843
308000, -64.973840
308500, -64.973837
309000, -64.973835
309500, -64.973832
310000, -64.973829
310500, -64.973826
311000, -64.973823
311500, -64.973820
312000, -64.973818
312500, -64.973815
313000, -64.973812
313500, -64.973809
314000, -64.973806
314500, -64.973803
315000, -64.973800
315500, -64.973797
316000, -64.973794
316500, -64.973791
317000, -64.973788
317500, -64.973786
318000, -64.973783
318500, -64.973780
319000, -64.973777
319500, -64.973774
320000, -64.973771
320500, -64.973768
321000, -64.973765
321500, -64.973762
322000, -64.973760
322500, -64.973757
323000, -64.973754
323500, -64.973751
324000, -64.973748
324500, -64.973746
325000, -64.973743
325500, -64.973740
326000, -64.973737
326500, -64.973735
327000, -64.973732
327500, -64.973730
328000, -64.973727
328500, -64.973724
329000, -64.973722
329500, -64.973719
330000, -64.973717
330500, -64.973714
331000, -64.973712
331500, -64.973709
332000, -64.973707
332500, -64.973705
333000, -64.973702
333500, -64.973700
334000, -64.973698
334500, -64.973696
335000, -64.973693
335500, -64.973691
336000, -64.973689
336500, -64.973687
337000, -64.973685
337500, -64.973683
338000, -64.973681
338500, -64.973679
339000, -64.973677
339500, -64.973675
340000, -64.973673
340500, -64.973671
341000, -64.973670
341500, -64.973668
342000, -64.973666
342500, -64.973665
343000, -64.973663
343500, -64.973661
344000, -64.973660
344500, -64.973658
345000, -64.973657
345500, -64.973655
346000, -64.973654
346500, -64.973652
347000, -64.973651
347500, -64.973650
348000, -64.973648
348500, -64.973647
349000, -64.973646
349500, -64.973645
350000, -64.973644
350500, -64.973643
351000, -64.973642
351500, -64.973640
352000, -64.973639
352500, -64.973639
353000, -64.973638
353500, -64.973637
354000, -64.973636
354500, -64.973635
355000, -64.973634
355500, -64.973633
356000, -64.973633
356500, -64.973632
357000, -64.973631
357500, -64.973631
358000, -64.973630
358500, -64.973630
359000, -64.973629
359500, -64.973629
360000, -64.973628
360500, -64.973628
361000, -64.973627
361500, -64.973627
362000, -64.973627
362500, -64.973626
363000, -64.973626
363500, -64.973626
364000, -64.973625
364500, -64.973625
365000, -64.973625
365500, -64.973625
366000, -64.973625
366500, -64.973625
367000, -64.973624
367500, -64.973624
368000, -64.973624
368500, -64.973624
369000, -64.973624
369500, -64.973624
370000, -64.973624
370500, -64.973625
371000, -64.973625
371500, -64.973625
372000, -64.973625
372500, -64.973625
373000, -64.973625
373500, -64.973625
374000, -64.973626
374500, -64.973626
375000, -64.973626
375500, -64.973626
376000, -64.973627
376500, -64.973627
377000, -64.973627
377500, -64.973628
378000, -64.973628
378500, -64.973628
379000, -64.973629
379500, -64.973629
380000, -64.973630
380500, -64.973630
381000, -64.973630
381500, -64.973631
382000, -64.973631
382500, -64.973632
383000, -64.973632
383500, -64.973633
384000, -64.973633
384500, -64.973634
385000, -64.973634
385500, -64.973635
386000, -64.973635
386500, -64.973636
387000, -64.973636
387500, -64.973637
388000, -64.973638
388500, -64.973638
389000, -64.973639
389500, -64.973639
390000, -64.973640
390500, -64.973641
391000, -64.973641
391500, -64.973642
392000, -64.973642
392500, -64.973643
393000, -64.973644
393500, -64.973644
394000, -64.973645
394500, -64.973645
395000, -64.973646
395500, -64.973647
396000, -64.973647
396500, -64.973648
397000, -64.973649
397500, -64.973649
398000, -64.973650
398500, -64.973651
399000, -64.973651
399500, -64.973652
400000, -64.973652
400500, -64.973653
401000, -64.973654
401500, -64.973654
402000, -64.973655
402500, -64.973656
403000, -64.973656
403500, -64.973657
404000, -64.973657
404500, -64.973658
405000, -64.973659
405500, -64.973659
406000, -64.973660
406500, -64.973660
407000, -64.973661
407500, -64.973662
408000, -64.973662
408500, -64.973663
409000, -64.973663
409500, -64.973664
410000, -64.973665
410500, -64.973665
411000, -64.973666
411500, -64.973666
412000, -64.973667
412500, -64.973667
413000, -64.973668
413500, -64.973668
414000, -64.973669
414500, -64.973669
415000, -64.973670
415500, -64.973670
416000, -64.973671
416500, -64.973671
417000, -64.973672
417500, -64.973672
418000, -64.973673
418500, -64.973673
419000, -64.973674
419500, -64.973674
420000, -64.973675
420500, -64.973675
421000, -64.973675
421500, -64.973676
422000, -64.973676
422500, -64.973677
423000, -64.973677
423500, -64.973677
424000, -64.973678
424500, -64.973678
425000, -64.973679
425500, -64.973679
426000, -64.973679
426500, -64.973680
427000, -64.973680
427500, -64.973680
428000, -64.973681
428500, -64.973681
429000, -64.973681
429500, -64.973682
430000, -64.973682
430500, -64.973682
431000, -64.973682
431500, -64.973683
432000, -64.973683
432500, -64.973683
433000, -64.973683
433500, -64.973684
434000, -64.973684
434500, -64.973684
435000, -64.973684
435500, -64.973684
436000, -64.973685
436500, -64.973685
437000, -64.973685
437500, -64.973685
438000, -64.973685
438500, -64.973686
439000, -64.973686
439500, -64.973686
440000, -64.973686
440500, -64.973686
441000, -64.973686
441500, -64.973686
442000, -64.973686
442500, -64.973687
443000, -64.973687
443500, -64.973687
444000, -64.973687
444500, -64.973687
445000, -64.973687
445500, -64.973687
446000, -64.973687
446500, -64.973687
447000, -64.973687
447500, -64.973687
448000, -64.973687
448500, -64.973687
449000, -64.973687
449500, -64.973687
450000, -64.973688
450500, -64.973688
451000, -64.973688
451500, -64.973688
452000, -64.973688
452500, -64.973688
453000, -64.973688
453500, -64.973688
454000, -64.973688
454500, -64.973688
455000, -64.973687
455500, -64.973687
456000, -64.973687
456500, -64.973687
457000, -64.973687
457500, -64.973687
458000, -64.973687
458500, -64.973687
459000, -64.973687
459500, -64.973687
460000, -64.973687
460500, -64.973687
461000, -64.973687
461500, -64.973687
462000, -64.973687
462500, -64.973687
463000, -64.973687
463500, -64.973687
464000, -64.973686
464500, -64.973686
465000, -64.973686
465500, -64.973686
466000, -64.973686
466500, -64.973686
467000, -64.973686
467500, -64.973686
468000, -64.973686
468500, -64.973686
469000, -64.973685
469500, -64.973685
470000, -64.973685
470500, -64.973685
471000, -64.973685
471500, -64.973685
472000, -64.973685
472500, -64.973685
473000, -64.973685
473500, -64.973684
474000, -64.973684
474500, -64.973684
475000, -64.973684
475500, -64.973684
476000, -64.973684
476500, -64.973684
477000, -64.973684
477500, -64.973683
478000, -64.973683
478500, -64.973683
479000, -64.973683
479500, -64.973683
480000, -64.973683
480500, -64.973683
481000, -64.973683
481500, -64.973683
482000, -64.973682
482500, -64.973682
483000, -64.973682
483500, -64.973682
484000, -64.973682
484500, -64.973682
485000, -64.973682
485500, -64.973682
486000, -64.973681
486500, -64.973681
487000, -64.973681
487500, -64.973681
488000, -64.973681
488500, -64.973681
489000, -64.973681
489500, -64.973681
490000, -64.973680
490500, -64.973680
491000, -64.973680
491500, -64.973680
492000, -64.973680
492500, -64.973680
493000, -64.973680
493500, -64.973680
494000, -64.973680
494500, -64.973679
495000, -64.973679
495500, -64.973679
496000, -64.973679
496500, -64.973679
497000, -64.973679
497500, -64.973679
498000, -64.973679
498500, -64.973679
499000, -64.973679
499500, -64.973678
500000, -64.973678
500500, -62.625214
501000, -60.349172
501500, -58.130977
502000, -55.961544
502500, -53.818585
503000, -51.679249
503500, -49.499833
504000, -47.225677
504500, -44.766435
505000, -41.998508
505500, -38.728480
506000, -34.676043
506500, -29.411702
507000, -22.322995
507500, -12.623111
508000, 0.260639
508500, 15.513166
509000, 29.639502
509500, 38.551407
510000, 41.883698
510500, 42.215201
511000, 41.488417
511500, 40.366481
512000, 38.994373
512500, 37.418767
513000, 35.661184
513500, 33.747644
514000, 31.695391
514500, 29.529159
515000, 27.265143
515500, 24.926489
516000, 22.527146
516500, 20.087461
517000, 17.618128
517500, 15.135996
518000, 12.648235
518500, 10.168196
519000, 7.699763
519500, 5.253199
520000, 2.829601
520500, 0.436762
521000, -1.926492
521500, -4.254166
522000, -6.549197
522500, -8.807138
523000, -11.031876
523500, -13.220038
524000, -15.376959
524500, -17.500315
525000, -19.596169
525500, -21.663414
526000, -23.709602
526500, -25.735412
527000, -27.750505
527500, -29.758036
528000, -31.770497
528500, -33.794194
529000, -35.844971
529500, -37.932476
530000, -40.075499
530500, -42.285704
531000, -44.581734
531500, -46.971244
532000, -49.463268
532500, -52.046471
533000, -54.700287
533500, -57.371241
534000, -59.988174
534500, -62.452222
535000, -64.666586
535500, -66.546842
536000, -68.055399
536500, -69.193016
537000, -70.004724
537500, -70.547334
538000, -70.888026
538500, -71.078753
539000, -71.167504
539500, -71.182935
540000, -71.151838
540500, -71.085989
541000, -70.999737
541500, -70.896145
542000, -70.783641
542500, -70.661353
543000, -70.535117
543500, -70.402372
544000, -70.267847
544500, -70.128266
545000, -69.987882
545500, -69.843114
546000, -69.698009
546500, -69.548852
547000, -69.399602
547500, -69.246490
548000, -69.093433
548500, -68.936641
549000, -68.780009
549500, -68.619737
550000, -68.459711
550500, -68.296131
551000, -68.132880
551500, -67.966164
552000, -67.799862
552500, -67.630178
553000, -67.460986
553500, -67.288500
554000, -67.116597
554500, -66.941498
555000, -66.767075
555500, -66.589547
556000, -66.412783
556500, -66.233013
557000, -66.054109
557500, -65.872307
558000, -65.691471
558500, -65.507830
559000, -65.325249
559500, -65.139970
560000, -64.955860
560500, -64.769164
561000, -64.583729
561500, -64.395793
562000, -64.209214
562500, -64.020243
563000, -63.832738
563500, -63.642932
564000, -63.454658
564500, -63.264163
565000, -63.075290
565500, -62.884297
566000, -62.695005
566500, -62.503643
567000, -62.314029
567500, -62.122410
568000, -61.932614
568500, -61.740882
569000, -61.550992
569500, -61.359170
570000, -61.169214
570500, -60.977372
571000, -60.787443
571500, -60.595614
572000, -60.405639
572500, -60.213739
573000, -60.023688
573500, -59.831731
574000, -59.641570
574500, -59.449380
575000, -59.258886
575500, -59.066302
576000, -58.875376
576500, -58.682266
577000, -58.490621
577500, -58.296603
578000, -58.103903
578500, -57.908723
579000, -57.714705
579500, -57.517929
580000, -57.322001
580500, -57.123060
581000, -56.924755
581500, -56.723190
582000, -56.521846
582500, -56.316765
583000, -56.111494
583500, -55.902131
584000, -55.692143
584500, -55.477423
585000, -55.261367
585500, -55.039943
586000, -54.816600
586500, -54.587084
587000, -54.354572
587500, -54.114831
588000, -53.871101
588500, -53.618975
589000, -53.361310
589500, -53.093564
590000, -52.818641
590500, -52.531670
591000, -52.235027
591500, -51.923671
592000, -51.599804
592500, -51.257639
593000, -50.898772
593500, -50.517079
594000, -50.113084
594500, -49.679776
595000, -49.216542
595500, -48.714800
596000, -48.172270
596500, -47.578176
597000, -46.927379
597500, -46.205821
598000, -45.403983
598500, -44.501956
599000, -43.483406
599500, -42.319679
600000, -40.983288
600500, -39.431802
601000, -37.620457
601500, -35.486789
602000, -32.964928
602500, -29.973491
603000, -26.439057
603500, -22.300860
604000, -17.558797
604500, -12.308425
605000, -6.803037
605500, -1.445049
606000, 3.279165
606500, 6.968176
607000, 9.423100
607500, 10.682854
608000, 10.928779
608500, 10.395022
609000, 9.286771
609500, 7.771858
610000, 5.967702
610500, 3.965737
611000, 1.826241
611500, -0.399944
612000, -2.681201
612500, -4.987363
613000, -7.302133
613500, -9.607356
614000, -11.895894
614500, -14.156383
615000, -16.387548
615500, -18.582922
616000, -20.744915
616500, -22.870254
617000, -24.964473
617500, -27.027376
618000, -29.067645
618500, -31.088227
619000, -33.100756
619500, -35.111064
620000, -37.133532
620500, -39.176283
621000, -41.255082
621500, -43.377921
622000, -45.558068
622500, -47.797568
623000, -50.099005
623500, -52.447426
624000, -54.820890
624500, -57.174827
625000, -59.455944
625500, -61.593401
626000, -63.524185
626500, -65.191311
627000, -66.569174
627500, -67.652775
628000, -68.468603
628500, -69.051095
629000, -69.447479
629500, -69.695959
630000, -69.836248
630500, -69.893758
631000, -69.894252
631500, -69.850549
632000, -69.778099
632500, -69.681783
633000, -69.571163
633500, -69.446869
634000, -69.315440
634500, -69.175380
635000, -69.031740
635500, -68.881992
636000, -68.730459
636500, -68.574111
637000, -68.416918
637500, -68.255609
638000, -68.093982
638500, -67.928646
639000, -67.763308
639500, -67.594519
640000, -67.425936
640500, -67.254086
641000, -67.082605
641500, -66.908010
642000, -66.733921
642500, -66.556842
643000, -66.380385
643500, -66.201060
644000, -66.022478
644500, -65.841151
645000, -65.660677
645500, -65.477564
646000, -65.295411
646500, -65.110735
647000, -64.927137
647500, -64.741131
648000, -64.556303
648500, -64.369168
649000, -64.183314
649500, -63.995267
650000, -63.808618
650500, -63.619873
651000, -63.432602
651500, -63.243327
652000, -63.055624
652500, -62.866025
653000, -62.678084
653500, -62.488307
654000, -62.300250
654500, -62.110434
655000, -61.922423
655500, -61.732729
656000, -61.544873
656500, -61.355357
657000, -61.167717
657500, -60.978476
658000, -60.791170
658500, -60.602269
659000, -60.415267
659500, -60.226664
660000, -60.039974
660500, -59.851714
661000, -59.665343
661500, -59.477319
662000, -59.291109
662500, -59.103205
663000, -58.917098
663500, -58.729252
664000, -58.543067
664500, -58.354988
665000, -58.168454
665500, -57.979944
666000, -57.792908
666500, -57.603713
667000, -57.415721
667500, -57.225358
668000, -57.036028
668500, -56.844194
669000, -56.653144
669500, -56.459214
670000, -56.265718
670500, -56.069051
671000, -55.872568
671500, -55.672563
672000, -55.472216
672500, -55.267810
673000, -55.062589
673500, -54.852893
674000, -54.641808
674500, -54.425452
675000, -54.206897
675500, -53.982333
676000, -53.754856
676500, -53.520337
677000, -53.281601
677500, -53.034602
678000, -52.782212
678500, -52.520024
679000, -52.250492
679500, -51.969201
680000, -51.678565
680500, -51.373575
681000, -51.056115
681500, -50.721166
682000, -50.369924
682500, -49.996529
683000, -49.601902
683500, -49.179028
684000, -48.727612
684500, -48.239598
685000, -47.713000
685500, -47.137864
686000, -46.509891
686500, -45.816005
687000, -45.048250
687500, -44.189225
688000, -43.224918
688500, -42.130641
689000, -40.883737
689500, -39.448721
690000, -37.789844
690500, -35.856977
691000, -33.599122
691500, -30.952984
692000, -27.862297
692500, -24.277167
693000, -20.189352
693500, -15.650083
694000, -10.818820
694500, -5.966096
695000, -1.458489
695500, 2.340789
696000, 5.167469
696500, 6.933397
697000, 7.700052
697500, 7.627858
698000, 6.895960
698500, 5.674110
699000, 4.093584
699500, 2.261028
700000, 0.250300
700500, -1.877512
701000, -4.082606
701500, -6.329260
702000, -8.596725
702500, -10.863559
703000, -13.119815
703500, -15.352750
704000, -17.559486
704500, -19.732690
705000, -21.873843
705500, -23.979575
706000, -26.055031
706500, -28.100474
707000, -30.124433
707500, -32.130233
708000, -34.129440
708500, -36.128286
709000, -38.140858
709500, -40.175209
710000, -42.246068
710500, -44.360303
711000, -46.528743
711500, -48.750589
712000, -51.024099
712500, -53.330037
713000, -55.641331
713500, -57.910069
714000, -60.082717
714500, -62.092725
715000, -63.885042
715500, -65.414092
716000, -66.664744
716500, -67.640274
717000, -68.370162
717500, -68.888391
718000, -69.238709
718500, -69.455516
719000, -69.574314
719500, -69.617537
720000, -69.608259
720500, -69.557848
721000, -69.480352
721500, -69.380170
722000, -69.266146
722500, -69.138891
723000, -69.004523
723500, -68.861721
724000, -68.715228
724500, -68.562758
725000, -68.408374
725500, -68.249311
726000, -68.089292
726500, -67.925315
727000, -67.760928
727500, -67.593005
728000, -67.425003
728500, -67.253742
729000, -67.082631
729500, -66.908464
730000, -66.734622
730500, -66.557878
731000, -66.381599
731500, -66.202555
732000, -66.024110
732500, -65.843034
733000, -65.662676
733500, -65.479800
734000, -65.297754
734500, -65.113311
735000, -64.929820
735500, -64.744052
736000, -64.559338
736500, -64.372449
737000, -64.186722
737500, -63.998936
738000, -63.812430
738500, -63.623964
739000, -63.436858
739500, -63.247885
740000, -63.060372
740500, -62.871103
741000, -62.683381
741500, -62.493967
742000, -62.306164
742500, -62.116747
743000, -61.929028
743500, -61.739774
744000, -61.552256
744500, -61.363228
745000, -61.175977
745500, -60.987276
746000, -60.800416
746500, -60.612117
747000, -60.425626
747500, -60.237693
748000, -60.051583
748500, -59.864066
749000, -59.678357
749500, -59.491165
750000, -59.305710
750500, -59.118735
751000, -58.933480
751500, -58.746673
752000, -58.561466
752500, -58.374554
753000, -58.189128
753500, -58.001919
754000, -57.816144
754500, -57.628423
755000, -57.441872
755500, -57.253168
756000, -57.065469
756500, -56.875489
757000, -56.686302
757500, -56.494496
758000, -56.303138
758500, -56.108877
759000, -55.914824
759500, -55.717575
760000, -55.520065
760500, -55.318834
761000, -55.116884
761500, -54.910810
762000, -54.703542
762500, -54.491453
763000, -54.277380
763500, -54.057775
764000, -53.835530
764500, -53.606885
765000, -53.374439
765500, -53.134418
766000, -52.889480
766500, -52.635699
767000, -52.375324
767500, -52.104235
768000, -51.824723
768500, -51.532338
769000, -51.228801
769500, -50.909451
770000, -50.575788
770500, -50.222354
771000, -49.850029
771500, -49.452876
772000, -49.030648
772500, -48.576571
773000, -48.088967
773500, -47.559432
774000, -46.984422
774500, -46.353245
775000, -45.659330
775500, -44.888059
776000, -44.028777
776500, -43.061238
777000, -41.967545
777500, -40.718779
778000, -39.286473
778500, -37.629318
779000, -35.705084
779500, -33.458218
780000, -30.834792
780500, -27.775792
781000, -24.242291
781500, -20.223659
782000, -15.780041
782500, -11.061415
783000, -6.334590
783500, -1.943115
784000, 1.761829
784500, 4.532381
785000, 6.272819
785500, 7.042270
786000, 6.983879
786500, 6.274699
787000, 5.072822
787500, 3.514050
788000, 1.697759
788500, -0.295418
789000, -2.410584
789500, -4.601104
790000, -6.837443
790500, -9.091938
791000, -11.349546
791500, -13.593954
792000, -15.818746
792500, -18.014247
793000, -20.179603
793500, -22.310202
794000, -24.409350
794500, -26.475806
795000, -28.516275
795500, -30.532882
796000, -32.535617
796500, -34.529745
797000, -36.528113
797500, -38.538375
798000, -40.574974
798500, -42.645900
799000, -44.763998
799500, -46.932849
800000, -49.156984
800500, -51.426175
801000, -53.725061
801500, -56.018609
802000, -58.263761
802500, -60.398906
803000, -62.365167
803500, -64.104219
804000, -65.581409
804500, -66.779448
805000, -67.711433
805500, -68.402173
806000, -68.892372
806500, -69.218616
807000, -69.420490
807500, -69.525741
808000, -69.562024
808500, -69.545033
809000, -69.491819
809500, -69.409487
810000, -69.308472
810500, -69.190952
811000, -69.063769
811500, -68.926521
812000, -68.784206
812500, -68.635119
813000, -68.483333
813500, -68.326499
814000, -68.168228
814500, -68.005846
815000, -67.842730
815500, -67.676039
816000, -67.509026
816500, -67.338772
817000, -67.168468
817500, -66.995158
818000, -66.821999
818500, -66.646006
819000, -66.470314
819500, -66.291936
820000, -66.113998
820500, -65.933510
821000, -65.753591
821500, -65.571242
822000, -65.389575
822500, -65.205597
823000, -65.022421
823500, -64.837061
824000, -64.652613
824500, -64.466080
825000, -64.280565
825500, -64.093079
826000, -63.906728
826500, -63.718517
827000, -63.531528
827500, -63.342768
828000, -63.155327
828500, -62.966221
829000, -62.778538
829500, -62.589266
830000, -62.401473
830500, -62.212166
831000, -62.024419
831500, -61.835251
832000, -61.647701
832500, -61.458752
833000, -61.271454
833500, -61.082811
834000, -60.895882
834500, -60.707647
835000, -60.521115
835500, -60.333261
836000, -60.147115
836500, -59.959674
837000, -59.773961
837500, -59.586911
838000, -59.401501
838500, -59.214702
839000, -59.029516
839500, -58.842937
840000, -58.657895
840500, -58.471305
841000, -58.286119
841500, -58.099294
842000, -57.913808
842500, -57.726581
843000, -57.540485
843500, -57.352416
844000, -57.165289
844500, -56.976045
845000, -56.787609
845500, -56.596783
846000, -56.406391
846500, -56.213299
847000, -56.020379
847500, -55.824544
848000, -55.628505
848500, -55.429016
849000, -55.228835
849500, -55.024780
850000, -54.819656
850500, -54.610086
851000, -54.398659
851500, -54.182046
852000, -53.962901
852500, -53.737888
853000, -53.509355
853500, -53.273746
854000, -53.033485
854500, -52.785070
855000, -52.530573
855500, -52.266102
856000, -51.993726
856500, -51.709574
857000, -51.415145
857500, -51.106030
858000, -50.783736
858500, -50.443338
859000, -50.085546
859500, -49.705091
860000, -49.301831
860500, -48.869365
861000, -48.406719
861500, -47.905952
862000, -47.364498
862500, -46.772334
863000, -46.124240
863500, -45.407345
864000, -44.612271
864500, -43.721270
865000, -42.719184
865500, -41.580803
866000, -40.281753
866500, -38.785879
867000, -37.056080
867500, -35.042109
868000, -32.693111
868500, -29.949252
869000, -26.760700
869500, -23.091154
870000, -18.952384
870500, -14.424245
871000, -9.695300
871500, -5.053833
872000, -0.856169
872500, 2.574495
873000, 5.029638
873500, 6.467420
874000, 6.972609
874500, 6.706574
875000, 5.837993
875500, 4.522609
876000, 2.880464
876500, 1.008966
877000, -1.023699
877500, -3.161346
878000, -5.366933
878500, -7.607523
879000, -9.863509
879500, -12.115234
880000, -14.353543
880500, -16.567143
881000, -18.753259
881500, -20.905665
882000, -23.026031
882500, -25.112197
883000, -27.169713
883500, -29.199850
884000, -31.211275
884500, -33.208436
885000, -35.203050
885500, -37.202315
886000, -39.220129
886500, -41.264935
887000, -43.350391
887500, -45.482468
888000, -47.669149
888500, -49.906452
889000, -52.187100
889500, -54.485335
890000, -56.766969
890500, -58.978670
891000, -61.063433
891500, -62.957207
892000, -64.612339
892500, -65.995385
893000, -67.103780
893500, -67.951146
894000, -68.572330
894500, -69.003309
895000, -69.285985
895500, -69.452190
896000, -69.533525
896500, -69.549670
897000, -69.520556
897500, -69.455926
898000, -69.367807
898500, -69.259927
899000, -69.139866
899500, -69.008129
900000, -68.869982
900500, -68.724287
901000, -68.575139
901500, -68.420582
902000, -68.264130
902500, -68.103418
903000, -67.941663
903500, -67.776294
904000, -67.610375
904500, -67.441228
905000, -67.271841
905500, -67.099488
906000, -66.927117
906500, -66.751973
907000, -66.576974
907500, -66.399353
908000, -66.222020
908500, -66.042205
909000, -65.862814
909500, -65.681067
910000, -65.499856
910500, -65.316407
911000, -65.133613
911500, -64.948706
912000, -64.764574
912500, -64.578435
913000, -64.393172
913500, -64.206012
914000, -64.019841
914500, -63.831894
915000, -63.645036
915500, -63.456487
916000, -63.269117
916500, -63.080157
917000, -62.892484
917500, -62.703316
918000, -62.515498
918500, -62.326251
919000, -62.138429
919500, -61.949267
920000, -61.761613
920500, -61.572662
921000, -61.385239
921500, -61.196563
922000, -61.009472
922500, -60.821196
923000, -60.634521
923500, -60.446634
924000, -60.260339
924500, -60.072848
925000, -59.886980
925500, -59.699913
926000, -59.514400
926500, -59.327617
927000, -59.142346
927500, -58.955788
928000, -58.770719
928500, -58.584257
929000, -58.399125
929500, -58.212486
930000, -58.027094
930500, -57.840143
931000, -57.654291
931500, -57.466636
932000, -57.279866
932500, -57.091126
933000, -56.903138
933500, -56.712993
934000, -56.523281
934500, -56.331065
935000, -56.138990
935500, -55.944171
936000, -55.749231
936500, -55.551109
937000, -55.352332
937500, -55.149914
938000, -54.946437
938500, -54.738892
939000, -54.529629
939500, -54.315509
940000, -54.098958
940500, -53.876898
941000, -53.651608
941500, -53.419719
942000, -53.183425
942500, -52.939425
943000, -52.689852
943500, -52.430999
944000, -52.164712
944500, -51.887344
945000, -51.600538
945500, -51.300086
946000, -50.987295
946500, -50.657923
947000, -50.312487
947500, -49.945983
948000, -49.558697
948500, -49.144528
949000, -48.702730
949500, -48.226143
950000, -47.712436
950500, -47.152729
951000, -46.542526
951500, -45.870098
952000, -45.127660
952500, -44.299414
953000, -43.372038
953500, -42.323271
954000, -41.131947
954500, -39.766157
955000, -38.193026
955500, -36.367218
956000, -34.241751
956500, -31.758556
957000, -28.863927
957500, -25.507295
958000, -21.670200
958500, -17.381502
959000, -12.760565
959500, -8.028789
960000, -3.509532
960500, 0.444565
961000, 3.539603
961500, 5.629282
962000, 6.718888
962500, 6.931244
963000, 6.431709
963500, 5.389989
964000, 3.945862
964500, 2.214421
965000, 0.278313
965500, -1.795555
966000, -3.961704
966500, -6.181230
967000, -8.429829
967500, -10.684598
968000, -12.933245
968500, -15.162199
969000, -17.366891
969500, -19.539978
970000, -21.681644
970500, -23.788656
971000, -25.865012
971500, -27.911083
972000, -29.934329
972500, -31.938469
973000, -33.934151
973500, -35.928040
974000, -37.933313
974500, -39.958484
975000, -42.017490
975500, -44.117929
976000, -46.270199
976500, -48.474689
977000, -50.729893
977500, -53.018772
978000, -55.316670
978500, -57.578206
979000, -59.751303
979500, -61.771927
980000, -63.584366
980500, -65.141785
981000, -66.425427
981500, -67.435392
982000, -68.197483
982500, -68.744427
983000, -69.118407
983500, -69.354514
984000, -69.488038
984500, -69.542755
985000, -69.541779
985500, -69.497779
986000, -69.424668
986500, -69.327930
987000, -69.216070
987500, -69.090610
988000, -68.957187
988500, -68.815281
989000, -68.669071
989500, -68.517011
990000, -68.362553
990500, -68.203641
991000, -68.043361
991500, -67.879399
992000, -67.714652
992500, -67.546675
993000, -67.378269
993500, -67.206925
994000, -67.035397
994500, -66.861143
995000, -66.686885
995500, -66.510061
996000, -66.333379
996500, -66.154273
997000, -65.975447
997500, -65.794333
998000, -65.613617
998500, -65.430727
999000, -65.248352
999500, -65.063926
1000000, -64.880138
1000500, -64.694416
1001000, -64.509433
1001500, -64.322620
1002000, -64.136658
1002500, -63.948983
1003000, -63.762273
1003500, -63.573945
1004000, -63.386664
1004500, -63.197863
1005000, -63.010211
1005500, -62.821150
1006000, -62.633319
1006500, -62.444135
1007000, -62.256251
1007500, -62.067096
1008000, -61.879330
1008500, -61.690362
1009000, -61.502812
1009500, -61.314092
1010000, -61.126836
1010500, -60.938473
1011000, -60.751625
1011500, -60.563670
1012000, -60.377206
1012500, -60.189639
1013000, -60.003583
1013500, -59.816461
1014000, -59.630817
1014500, -59.444018
1015000, -59.258636
1015500, -59.072069
1016000, -58.886910
1016500, -58.700512
1017000, -58.515384
1017500, -58.328877
1018000, -58.143539
1018500, -57.956752
1019000, -57.771057
1019500, -57.583731
1020000, -57.397248
1020500, -57.208938
1021000, -57.021317
1021500, -56.831752
1022000, -56.642633
1022500, -56.451203
1023000, -56.259895
1023500, -56.066009
1024000, -55.872017
1024500, -55.675118
1025000, -55.477616
1025500, -55.276705
1026000, -55.074753
1026500, -54.869007
1027000, -54.661703
1027500, -54.449874
1028000, -54.235726
1028500, -54.016366
1029000, -53.794050
1029500, -53.565608
1030000, -53.333012
1030500, -53.093146
1031000, -52.848039
1031500, -52.594346
1032000, -52.333694
1032500, -52.062625
1033000, -51.782803
1033500, -51.490350
1034000, -51.186373
1034500, -50.866871
1035000, -50.532632
1035500, -50.178868
1036000, -49.805844
1036500, -49.408185
1037000, -48.985039
1037500, -48.530266
1038000, -48.041505
1038500, -47.511031
1039000, -46.934577
1039500, -46.302020
1040000, -45.606210
1040500, -44.833096
1041000, -43.971332
1041500, -43.001335
1042000, -41.904610
1042500, -40.652752
1043000, -39.216729
1043500, -37.556003
1044000, -35.627886
1044500, -33.377848
1045000, -30.751968
1045500, -27.692969
1046000, -24.162800
1046500, -20.153254
1047000, -15.725921
1047500, -11.032917
1048000, -6.339698
1048500, -1.987287
1049000, 1.679088
1049500, 4.415948
1050000, 6.131208
1050500, 6.883568
1051000, 6.815094
1051500, 6.100200
1052000, 4.896042
1052500, 3.336518
1053000, 1.520975
1053500, -0.471023
1054000, -2.584172
1054500, -4.772592
1055000, -7.006202
1055500, -9.258035
1056000, -11.512672
1056500, -13.754313
1057000, -15.975902
1057500, -18.168423
1058000, -20.330767
1058500, -22.458778
1059000, -24.555125
1059500, -26.619247
1060000, -28.657305
1060500, -30.672143
1061000, -32.673214
1061500, -34.666489
1062000, -36.664249
1062500, -38.674798
1063000, -40.711931
1063500, -42.784183
1064000, -44.903606
1064500, -47.074135
1065000, -49.299087
1065500, -51.568159
1066000, -53.864795
1066500, -56.153894
1067000, -58.390602
1067500, -60.513971
1068000, -62.464907
1068500, -64.186669
1069000, -65.645399
1069500, -66.826040
1070000, -67.742224
1070500, -68.420008
1071000, -68.899603
1071500, -69.218001
1072000, -69.413764
1072500, -69.514819
1073000, -69.547803
1073500, -69.528698
1074000, -69.473684
1074500, -69.390297
1075000, -69.288222
1075500, -69.170162
1076000, -69.042274
1076500, -68.904731
1077000, -68.761882
1077500, -68.612618
1078000, -68.460384
1078500, -68.303436
1079000, -68.144762
1079500, -67.982301
1080000, -67.818810
1080500, -67.652062
1081000, -67.484694
1081500, -67.314402
1082000, -67.143762
1082500, -66.970429
1083000, -66.796948
1083500, -66.620947
1084000, -66.444949
1084500, -66.266579
1085000, -66.088350
1085500, -65.907887
1086000, -65.727693
1086500, -65.545384
1087000, -65.363457
1087500, -65.179534
1088000, -64.996117
1088500, -64.810829
1089000, -64.626155
1089500, -64.439709
1090000, -64.253984
1090500, -64.066602
1091000, -63.880058
1091500, -63.691965
1092000, -63.504797
1092500, -63.316169
1093000, -63.128564
1093500, -62.939607
1094000, -62.751772
1094500, -62.562659
1095000, -62.374727
1095500, -62.185591
1096000, -61.997719
1096500, -61.808739
1097000, -61.621073
1097500, -61.432317
1098000, -61.244912
1098500, -61.056471
1099000, -60.869447
1099500, -60.681419
1100000, -60.494790
1100500, -60.307146
1101000, -60.120909
1101500, -59.933685
1102000, -59.747880
1102500, -59.561037
1103000, -59.375532
1103500, -59.188940
1104000, -59.003662
1104500, -58.817297
1105000, -58.632156
1105500, -58.445762
1106000, -58.260467
1106500, -58.073832
1107000, -57.888235
1107500, -57.701182
1108000, -57.514946
1108500, -57.327029
1109000, -57.139749
1109500, -56.950648
1110000, -56.762031
1110500, -56.571307
1111000, -56.380701
1111500, -56.187685
1112000, -55.994535
1112500, -55.798758
1113000, -55.602447
1113500, -55.402959
1114000, -55.202461
1114500, -54.998371
1115000, -54.792900
1115500, -54.583235
1116000, -54.371376
1116500, -54.154596
1117000, -53.934957
1117500, -53.709681
1118000, -53.480528
1118500, -53.244544
1119000, -53.003562
1119500, -52.754679
1120000, -52.499320
1120500, -52.234194
1121000, -51.960782
1121500, -51.675746
1122000, -51.379999
1122500, -51.069731
1123000, -50.745853
1123500, -50.403952
1124000, -50.044146
1124500, -49.661757
1125000, -49.255940
1125500, -48.820883
1126000, -48.354889
1126500, -47.850596
1127000, -47.304683
1127500, -46.707686
1128000, -46.053581
1128500, -45.330029
1129000, -44.526780
1129500, -43.626367
1130000, -42.612693
1130500, -41.460737
1131000, -40.145087
1131500, -38.629678
1132000, -36.876123
1132500, -34.834231
1133000, -32.452219
1133500, -29.670970
1134000, -26.441452
1134500, -22.730789
1135000, -18.555843
1135500, -14.005585
1136000, -9.276785
1136500, -4.666841
1137000, -0.532539
1137500, 2.811006
1138000, 5.170525
1138500, 6.517207
1139000, 6.945227
1139500, 6.618083
1140000, 5.703903
1140500, 4.355109
1141000, 2.689532
1141500, 0.801537
1142000, -1.241922
1142500, -3.386591
1143000, -5.595825
1143500, -7.838009
1144000, -10.093515
1144500, -12.343842
1145000, -14.579711
1145500, -16.790508
1146000, -18.973054
1146500, -21.121897
1147000, -23.238608
1147500, -25.321822
1148000, -27.376462
1148500, -29.404481
1149000, -31.414116
1149500, -33.410556
1150000, -35.405077
1150500, -37.405563
1151000, -39.425383
1151500, -41.473537
1152000, -43.562973
1152500, -45.699974
1153000, -47.891494
1153500, -50.133442
1154000, -52.416543
1154500, -54.714253
1155000, -56.990740
1155500, -59.192201
1156000, -61.259817
1156500, -63.130986
1157000, -64.759365
1157500, -66.114587
1158000, -67.195723
1158500, -68.018895
1159000, -68.619423
1159500, -69.034061
1160000, -69.303814
1160500, -69.460523
1161000, -69.534573
1161500, -69.545628
1162000, -69.512554
1162500, -69.445282
1163000, -69.354975
1163500, -69.245725
1164000, -69.124383
1164500, -68.991920
1165000, -68.852952
1165500, -68.706858
1166000, -68.557125
1166500, -68.402341
1167000, -68.245428
1167500, -68.084581
1168000, -67.922437
1168500, -67.756986
1169000, -67.590718
1169500, -67.421523
1170000, -67.251816
1170500, -67.079440
1171000, -66.906769
1171500, -66.731619
1172000, -66.556338
1172500, -66.378727
1173000, -66.201127
1173500, -66.021338
1174000, -65.841695
1174500, -65.659987
1175000, -65.478537
1175500, -65.295140
1176000, -65.112122
1176500, -64.927281
1177000, -64.742937
1177500, -64.556876
1178000, -64.371413
1178500, -64.184345
1179000, -63.997988
1179500, -63.810147
1180000, -63.623115
1180500, -63.434681
1181000, -63.247148
1181500, -63.058315
1182000, -62.870492
1182500, -62.681460
1183000, -62.493500
1183500, -62.304397
1184000, -62.116443
1184500, -61.927436
1185000, -61.739656
1185500, -61.550862
1186000, -61.363318
1186500, -61.174806
1187000, -60.987602
1187500, -60.799495
1188000, -60.612707
1188500, -60.424987
1189000, -60.238580
1189500, -60.051261
1190000, -59.865287
1190500, -59.678389
1191000, -59.492760
1191500, -59.306139
1192000, -59.120749
1192500, -58.934354
1193000, -58.749156
1193500, -58.562838
1194000, -58.377564
1194500, -58.191059
1195000, -58.005521
1195500, -57.818701
1196000, -57.632685
1196500, -57.445133
1197000, -57.258178
1197500, -57.069523
1198000, -56.881337
1198500, -56.691250
1199000, -56.501297
1199500, -56.309103
1200000, -56.116760
1200500, -55.921940
1201000, -55.726687
1201500, -55.528503
1202000, -55.329361
1202500, -55.126837
1203000, -54.922956
1203500, -54.715239
1204000, -54.505485
1204500, -54.291115
1205000, -54.074002
1205500, -53.851626
1206000, -53.625674
1206500, -53.393337
1207000, -53.156259
1207500, -52.911697
1208000, -52.661179
1208500, -52.401561
1209000, -52.134139
1209500, -51.855817
1210000, -51.567623
1210500, -51.265906
1211000, -50.951419
1211500, -50.620392
1212000, -50.272791
1212500, -49.904154
1213000, -49.514111
1213500, -49.097097
1214000, -48.651800
1214500, -48.171453
1215000, -47.653147
1215500, -47.088358
1216000, -46.471989
1216500, -45.792604
1217000, -45.041587
1217500, -44.203571
1218000, -43.264290
1218500, -42.201587
1219000, -40.993241
1219500, -39.607311
1220000, -38.009525
1220500, -36.154449
1221000, -33.993812
1221500, -31.469668
1222000, -28.528297
1222500, -25.121635
1223000, -21.234472
1223500, -16.904043
1224000, -12.259669
1224500, -7.535314
1225000, -3.061392
1225500, 0.811985
1226000, 3.803477
1226500, 5.783500
1227000, 6.772566
1227500, 6.900932
1228000, 6.336193
1228500, 5.245594
1229000, 3.766253
1229500, 2.009536
1230000, 0.056247
1230500, -2.029261
1231000, -4.202441
1231500, -6.426137
1232000, -8.676207
1232500, -10.930823
1233000, -13.177606
1233500, -15.404197
1234000, -17.605704
1234500, -19.775433
1235000, -21.913214
1235500, -24.016564
1236000, -26.089196
1236500, -28.132394
1237000, -30.153252
1237500, -32.156144
1238000, -34.151275
1238500, -36.145944
1239000, -38.152874
1239500, -40.181166
1240000, -42.244163
1240500, -44.349774
1241000, -46.507476
1241500, -48.717613
1242000, -50.977297
1242500, -53.268882
1243000, -55.564796
1243500, -57.819261
1244000, -59.978781
1244500, -61.979618
1245000, -63.766360
1245500, -65.294675
1246000, -66.547908
1246500, -67.529393
1247000, -68.266161
1247500, -68.792291
1248000, -69.149494
1248500, -69.372937
1249000, -69.496721
1249500, -69.544474
1250000, -69.538166
1250500, -69.490507
1251000, -69.414489
1251500, -69.315846
1252000, -69.202339
1252500, -69.075872
1253000, -68.941445
1253500, -68.798991
1254000, -68.652105
1254500, -68.499734
1255000, -68.344773
1255500, -68.185677
1256000, -68.024989
1256500, -67.860915
1257000, -67.695815
1257500, -67.527768
1258000, -67.359043
1258500, -67.187658
1259000, -67.015836
1259500, -66.841563
1260000, -66.667029
1260500, -66.490202
1261000, -66.313260
1261500, -66.134167
1262000, -65.955096
1262500, -65.774008
1263000, -65.593061
1263500, -65.410209
1264000, -65.227617
1264500, -65.043244
1265000, -64.859253
1265500, -64.673595
1266000, -64.488421
1266500, -64.301685
1267000, -64.115543
1267500, -63.927959
1268000, -63.741081
1268500, -63.552852
1269000, -63.365414
1269500, -63.176724
1270000, -62.988927
1270500, -62.799988
1271000, -62.612019
1271500, -62.422965
1272000, -62.234952
1272500, -62.045936
1273000, -61.858052
1273500, -61.669229
1274000, -61.481563
1274500, -61.292992
1275000, -61.105627
1275500, -60.917420
1276000, -60.730465
1276500, -60.542663
1277000, -60.356091
1277500, -60.168678
1278000, -59.982517
1278500, -59.795548
1279000, -59.609791
1279500, -59.423137
1280000, -59.237639
1280500, -59.051216
1281000, -58.865941
1281500, -58.679677
1282000, -58.494415
1282500, -58.308030
1283000, -58.122548
1283500, -57.935876
1284000, -57.750020
1284500, -57.562779
1285000, -57.376112
1285500, -57.187869
1286000, -57.000051
1286500, -56.810542
1287000, -56.621197
1287500, -56.429782
1288000, -56.238214
1288500, -56.044313
1289000, -55.850038
1289500, -55.653080
1290000, -55.455232
1290500, -55.254208
1291000, -55.051864
1291500, -54.845964
1292000, -54.638200
1292500, -54.426126
1293000, -54.211437
1293500, -53.991757
1294000, -53.768821
1294500, -53.539946
1295000, -53.306595
1295500, -53.066172
1296000, -52.820192
1296500, -52.565775
1297000, -52.304041
1297500, -52.032047
1298000, -51.750945
1298500, -51.457304
1299000, -51.151721
1299500, -50.830706
1300000, -50.494452
1300500, -50.138681
1301000, -49.763138
1301500, -49.362848
1302000, -48.936433
1302500, -48.478126
1303000, -47.985031
1303500, -47.449856
1304000, -46.867657
1304500, -46.228587
1305000, -45.524907
1305500, -44.742755
1306000, -43.869919
1306500, -42.886916
1307000, -41.774267
1307500, -40.503515
1308000, -39.044486
1308500, -37.356453
1309000, -35.395337
1309500, -33.106450
1310000, -30.435088
1310500, -27.325459
1311000, -23.741615
1311500, -19.681537
1312000, -15.215509
1312500, -10.507805
1313000, -5.835134
1313500, -1.542915
1314000, 2.029730
1314500, 4.655077
1315000, 6.258922
1315500, 6.912430
1316000, 6.764027
1316500, 5.987669
1317000, 4.738362
1317500, 3.146040
1318000, 1.307638
1318500, -0.700246
1319000, -2.823609
1319500, -5.018399
1320000, -7.255038
1320500, -9.508062
1321000, -11.761922
1321500, -14.001705
1322000, -16.220206
1322500, -18.409628
1323000, -20.568372
1323500, -22.692884
1324000, -24.785510
1324500, -26.846399
1325000, -28.881427
1325500, -30.894151
1326000, -32.893723
1326500, -34.886793
1327000, -36.885289
1327500, -38.898108
1328000, -40.938564
1328500, -43.015607
1329000, -45.140549
1329500, -47.317185
1330000, -49.547439
1330500, -51.820619
1331000, -54.118449
1331500, -56.404402
1332000, -58.631464
1332500, -60.738738
1333000, -62.666898
1333500, -64.361066
1334000, -65.789237
1334500, -66.939783
1335000, -67.828088
1335500, -68.482087
1336000, -68.942000
1336500, -69.245170
1337000, -69.429107
1337500, -69.521552
1338000, -69.547980
1338500, -69.524294
1339000, -69.465722
1339500, -69.379944
1340000, -69.275891
1340500, -69.156572
1341000, -69.027516
1341500, -68.889292
1342000, -68.745687
1342500, -68.596041
1343000, -68.443267
1343500, -68.286092
1344000, -68.126995
1344500, -67.964395
1345000, -67.800546
1345500, -67.633709
1346000, -67.466025
1346500, -67.295676
1347000, -67.124746
1347500, -66.951380
1348000, -66.777630
1348500, -66.601614
1349000, -66.425363
1349500, -66.246992
1350000, -66.068526
1350500, -65.888078
1351000, -65.707661
1351500, -65.525378
1352000, -65.343241
1352500, -65.159359
1353000, -64.975745
1353500, -64.790509
1354000, -64.605649
1354500, -64.419268
1355000, -64.233369
1355500, -64.046065
1356000, -63.859361
1356500, -63.671356
1357000, -63.484037
1357500, -63.295508
1358000, -63.107763
1358500, -62.918917
1359000, -62.730952
1359500, -62.541955
1360000, -62.353899
1360500, -62.164889
1361000, -61.976905
1361500, -61.788055
1362000, -61.600279
1362500, -61.411658
1363000, -61.224149
1363500, -61.035850
1364000, -60.848730
1364500, -60.660846
1365000, -60.474119
1365500, -60.286618
1366000, -60.100284
1366500, -59.913207
1367000, -59.727302
1367500, -59.540596
1368000, -59.354984
1368500, -59.168525
1369000, -58.983140
1369500, -58.796899
1370000, -58.611634
1370500, -58.425351
1371000, -58.239921
1371500, -58.053389
1372000, -57.867653
1372500, -57.680686
1373000, -57.494283
1373500, -57.306430
1374000, -57.118965
1374500, -56.929914
1375000, -56.741085
1375500, -56.550368
1376000, -56.359515
1376500, -56.166477
1377000, -55.973055
1377500, -55.777213
1378000, -55.580570
1378500, -55.380965
1379000, -55.180089
1379500, -54.975842
1380000, -54.769928
1380500, -54.560017
1381000, -54.347637
1381500, -54.130541
1382000, -53.910314
1382500, -53.684620
1383000, -53.454747
1383500, -53.218222
1384000, -52.976403
1384500, -52.726824
1385000, -52.470432
1385500, -52.204414
1386000, -51.929775
1386500, -51.643593
1387000, -51.346307
1387500, -51.034580
1388000, -50.708846
1388500, -50.365075
1389000, -50.002908
1389500, -49.618133
1390000, -49.209310
1390500, -48.771087
1391000, -48.301148
1391500, -47.792576
1392000, -47.241389
1392500, -46.638545
1393000, -45.977296
1393500, -45.245631
1394000, -44.432553
1394500, -43.520684
1395000, -42.493016
1395500, -41.324498
1396000, -39.988667
1396500, -38.449270
1397000, -36.666557
1397500, -34.590053
1398000, -32.167009
1398500, -29.338753
1399000, -26.057280
1399500, -22.293469
1400000, -18.070984
1400500, -13.489163
1401000, -8.757528
1401500, -4.182552
1402000, -0.121445
1402500, 3.120372
1403000, 5.367167
1403500, 6.606185
1404000, 6.942557
1404500, 6.542625
1405000, 5.573737
1405500, 4.184724
1406000, 2.490629
1406500, 0.582487
1407000, -1.474430
1407500, -3.627925
1408000, -5.842063
1408500, -8.086583
1409000, -10.342176
1409500, -12.591475
1410000, -14.824962
1410500, -17.032763
1411000, -19.211568
1411500, -21.356983
1412000, -23.470113
1412500, -25.550131
1413000, -27.601662
1413500, -29.627322
1414000, -31.635088
1414500, -33.630800
1415000, -35.625438
1415500, -37.627470
1416000, -39.649864
1416500, -41.702060
1417000, -43.796401
1417500, -45.939334
1418000, -48.136839
1418500, -50.384117
1419000, -52.670100
1419500, -54.967559
1420000, -57.238815
1420500, -59.428350
1421000, -61.476892
1421500, -63.323131
1422000, -64.922126
1422500, -66.246856
1423000, -67.298297
1423500, -68.095102
1424000, -68.673195
1424500, -69.070038
1425000, -69.325799
1425500, -69.472151
1426000, -69.538324
1426500, -69.543799
1427000, -69.506453
1427500, -69.436260
1428000, -69.343610
1428500, -69.232826
1429000, -69.110134
1429500, -68.976847
1430000, -68.837035
1430500, -68.690479
1431000, -68.540163
1431500, -68.385106
1432000, -68.227751
1432500, -68.066734
1433000, -67.904224
1433500, -67.738663
1434000, -67.572076
1434500, -67.402806
1435000, -67.232811
1435500, -67.060385
1436000, -66.887449
1436500, -66.712269
1437000, -66.536738
1437500, -66.359113
1438000, -66.181280
1438500, -66.001492
1439000, -65.821630
1439500, -65.639936
1440000, -65.458280
1440500, -65.274911
1441000, -65.091699
1441500, -64.906899
1442000, -64.722374
1442500, -64.536365
1443000, -64.350733
1443500, -64.163728
1444000, -63.977216
1444500, -63.789450
1445000, -63.602272
1445500, -63.413922
1446000, -63.226254
1446500, -63.037519
1447000, -62.849573
1447500, -62.660647
1448000, -62.472571
1448500, -62.283582
1449000, -62.095521
1449500, -61.906638
1450000, -61.718756
1450500, -61.530088
1451000, -61.342447
1451500, -61.154066
1452000, -60.966772
1452500, -60.778799
1453000, -60.591917
1453500, -60.404329
1454000, -60.217832
1454500, -60.030648
1455000, -59.844588
1455500, -59.657822
1456000, -59.472098
1456500, -59.285603
1457000, -59.100115
1457500, -58.913845
1458000, -58.728538
1458500, -58.542326
1459000, -58.356930
1459500, -58.170522
1460000, -57.984853
1460500, -57.798115
1461000, -57.611945
1461500, -57.424450
1462000, -57.237321
1462500, -57.048708
1463000, -56.860337
1463500, -56.670264
1464000, -56.480083
1464500, -56.287869
1465000, -56.095270
1465500, -55.900405
1466000, -55.704852
1466500, -55.506561
1467000, -55.307067
1467500, -55.104390
1468000, -54.900115
1468500, -54.692178
1469000, -54.481940
1469500, -54.267270
1470000, -54.049600
1470500, -53.826856
1471000, -53.600244
1471500, -53.367403
1472000, -53.129539
1472500, -52.884352
1473000, -52.632883
1473500, -52.372434
1474000, -52.103860
1474500, -51.824510
1475000, -51.534905
1475500, -51.231838
1476000, -50.915620
1476500, -50.582840
1477000, -50.233022
1477500, -49.862135
1478000, -49.469259
1478500, -49.049257
1479000, -48.600355
1479500, -48.116067
1480000, -47.593013
1480500, -47.022906
1481000, -46.400155
1481500, -45.713498
1482000, -44.953586
1482500, -44.105254
1483000, -43.153512
1483500, -42.076167
1484000, -40.850025
1484500, -39.442747
1485000, -37.818973
1485500, -35.932888
1486000, -33.735121
1486500, -31.167886
1487000, -28.177279
1487500, -24.717756
1488000, -20.778736
1488500, -16.405782
1489000, -11.739498
1489500, -7.025621
1490000, -2.600706
1490500, 1.187043
1491000, 4.070800
1491500, 5.938475
1492000, 6.825549
1492500, 6.869309
1493000, 6.239081
1493500, 5.099535
1494000, 3.584917
1494500, 1.802949
1495000, -0.167667
1495500, -2.264885
1496000, -4.445216
1496500, -6.672963
1497000, -8.924341
1497500, -11.178569
1498000, -13.423582
1498500, -15.647753
1499000, -17.845927
1499500, -20.012067
1500000, -22.145830
1500500, -24.245687
1501000, -26.315121
1501500, -28.355822
1502000, -30.374577
1502500, -32.376358
1503000, -34.371107
1503500, -36.366696
1504000, -38.375514
1504500, -40.407115
1505000, -42.474344
1505500, -44.585338
1506000, -46.748768
1506500, -48.964799
1507000, -51.229224
1507500, -53.522790
1508000, -55.816348
1508500, -58.063320
1509000, -60.208544
1509500, -62.188183
1510000, -63.947862
1510500, -65.446329
1511000, -66.668912
1511500, -67.621914
1512000, -68.333579
1512500, -68.839133
1513000, -69.179856
1513500, -69.390847
1514000, -69.505113
1514500, -69.546025
1515000, -69.534526
1515500, -69.483261
1516000, -69.404422
1516500, -69.303888
1517000, -69.188790
1517500, -69.061312
1518000, -68.925921
1518500, -68.782904
1519000, -68.635378
1519500, -68.482676
1520000, -68.327244
1520500, -68.167942
1521000, -68.006876
1521500, -67.842667
1522000, -67.677243
1522500, -67.509103
1523000, -67.340088
1523500, -67.168638
1524000, -66.996551
1524500, -66.822234
1525000, -66.647454
1525500, -66.470599
1526000, -66.293426
1526500, -66.114321
1527000, -65.935035
1527500, -65.753948
1528000, -65.572797
1528500, -65.389960
1529000, -65.207178
1529500, -65.022833
1530000, -64.838667
1530500, -64.653049
1531000, -64.467710
1531500, -64.281026
1532000, -64.094733
1532500, -63.907214
1533000, -63.720194
1533500, -63.532040
1534000, -63.344471
1534500, -63.155866
1535000, -62.967950
1535500, -62.779105
1536000, -62.591025
1536500, -62.402072
1537000, -62.213956
1537500, -62.025051
1538000, -61.837076
1538500, -61.648370
1539000, -61.460615
1539500, -61.272166
1540000, -61.084717
1540500, -60.896639
1541000, -60.709602
1541500, -60.521925
1542000, -60.335270
1542500, -60.147984
1543000, -59.961745
1543500, -59.774898
1544000, -59.589052
1544500, -59.402514
1545000, -59.216923
1545500, -59.030615
1546000, -58.845249
1546500, -58.659090
1547000, -58.473719
1547500, -58.287426
1548000, -58.101826
1548500, -57.915239
1549000, -57.729245
1549500, -57.542061
1550000, -57.355233
1550500, -57.167029
1551000, -56.979035
1551500, -56.789535
1552000, -56.599974
1552500, -56.408532
1553000, -56.216718
1553500, -56.022766
1554000, -55.828224
1554500, -55.631172
1555000, -55.432997
1555500, -55.231828
1556000, -55.029110
1556500, -54.823023
1557000, -54.614819
1557500, -54.402467
1558000, -54.187256
1558500, -53.967224
1559000, -53.743659
1559500, -53.514295
1560000, -53.280190
1560500, -53.039158
1561000, -52.792308
1561500, -52.537119
1562000, -52.274306
1562500, -52.001337
1563000, -51.718956
1563500, -51.424073
1564000, -51.116881
1564500, -50.794294
1565000, -50.456015
1565500, -50.098170
1566000, -49.720089
1566500, -49.317088
1567000, -48.887369
1567500, -48.425433
1568000, -47.927947
1568500, -47.387847
1569000, -46.799727
1569500, -46.153908
1570000, -45.442151
1570500, -44.650674
1571000, -43.766489
1571500, -42.770095
1572000, -41.641113
1572500, -40.350925
1573000, -38.868301
1573500, -37.152081
1574000, -35.157015
1574500, -32.828144
1575000, -30.110300
1575500, -26.948854
1576000, -23.310379
1576500, -19.199651
1577000, -14.695989
1577500, -9.976547
1578000, -5.327995
1578500, -1.100650
1579000, 2.374817
1579500, 4.886201
1580000, 6.378032
1580500, 6.933278
1581000, 6.705930
1581500, 5.869175
1582000, 4.575524
1582500, 2.951147
1583000, 1.090413
1583500, -0.932864
1584000, -3.066079
1584500, -5.266954
1585000, -7.506618
1585500, -9.760593
1586000, -12.013448
1586500, -14.251127
1587000, -16.466781
1587500, -18.653017
1588000, -20.807993
1588500, -22.928767
1589000, -25.017505
1589500, -27.075026
1590000, -29.107140
1590500, -31.117981
1591000, -33.116421
1591500, -35.109620
1592000, -37.109205
1592500, -39.124556
1593000, -41.168602
1593500, -43.250562
1594000, -45.381002
1594500, -47.563621
1595000, -49.799226
1595500, -52.076507
1596000, -54.375183
1596500, -56.657054
1597000, -58.873782
1597500, -60.964238
1598000, -62.868957
1598500, -64.534904
1599000, -65.932113
1599500, -67.052313
1600000, -67.912672
1600500, -68.542932
1601000, -68.983342
1601500, -69.271432
1602000, -69.443729
1602500, -69.527674
1603000, -69.547675
1603500, -69.519462
1604000, -69.457413
1604500, -69.369259
1605000, -69.263281
1605500, -69.142697
1606000, -69.012509
1606500, -68.873588
1607000, -68.729258
1607500, -68.579206
1608000, -68.425919
1608500, -68.268494
1609000, -68.108998
1609500, -67.946233
1610000, -67.782052
1610500, -67.615100
1611000, -67.447122
1611500, -67.276691
1612000, -67.105495
1612500, -66.932071
1613000, -66.758075
1613500, -66.582018
1614000, -66.405538
1614500, -66.227142
1615000, -66.048463
1615500, -65.868005
1616000, -65.687388
1616500, -65.505108
1617000, -65.322784
1617500, -65.138917
1618000, -64.955130
1618500, -64.769923
1619000, -64.584901
1619500, -64.398560
1620000, -64.212512
1620500, -64.025260
1621000, -63.838421
1621500, -63.650481
1622000, -63.463035
1622500, -63.274581
1623000, -63.086721
1623500, -62.897961
1624000, -62.709890
1624500, -62.520985
1625000, -62.332832
1625500, -62.143923
1626000, -61.955851
1626500, -61.767108
1627000, -61.579247
1627500, -61.390736
1628000, -61.203148
1628500, -61.014967
1629000, -60.827777
1629500, -60.640013
1630000, -60.453211
1630500, -60.265830
1631000, -60.079424
1631500, -59.892471
1632000, -59.706490
1632500, -59.519896
1633000, -59.334201
1633500, -59.147851
1634000, -58.962382
1634500, -58.776240
1635000, -58.590871
1635500, -58.404673
1636000, -58.219130
1636500, -58.032676
1637000, -57.846824
1637500, -57.659917
1638000, -57.473370
1638500, -57.285554
1639000, -57.097927
1639500, -56.908900
1640000, -56.719879
1640500, -56.529143
1641000, -56.338062
1641500, -56.144976
1642000, -55.951302
1642500, -55.755367
1643000, -55.558410
1643500, -55.358659
1644000, -55.157423
1644500, -54.952988
1645000, -54.746648
1645500, -54.536461
1646000, -54.323574
1646500, -54.106127
1647000, -53.885326
1647500, -53.659179
1648000, -53.428597
1648500, -53.191492
1649000, -52.948844
1649500, -52.698522
1650000, -52.441095
1650500, -52.174134
1651000, -51.898265
1651500, -51.610882
1652000, -51.312046
1652500, -50.998798
1653000, -50.671189
1653500, -50.325477
1654000, -49.960920
1654500, -49.573586
1655000, -49.161637
1655500, -48.720082
1656000, -48.246070
1656500, -47.733033
1657000, -47.176415
1657500, -46.567495
1658000, -45.898888
1658500, -45.158675
1659000, -44.335351
1659500, -43.411511
1660000, -42.369309
1660500, -41.183546
1661000, -39.826784
1661500, -38.262257
1662000, -36.449139
1662500, -34.336537
1663000, -31.870821
1663500, -28.993903
1664000, -25.658748
1664500, -21.841269
1665000, -17.571563
1665500, -12.960838
1666000, -8.229653
1666500, -3.694528
1667000, 0.287960
1667500, 3.423599
1668000, 5.555051
1668500, 6.685754
1669000, 6.930837
1669500, 6.458927
1670000, 5.436139
1670500, 4.007658
1671000, 2.285621
1671500, 0.357844
1672000, -1.712154
1672500, -3.874114
1673000, -6.092892
1673500, -8.339572
1674000, -10.595263
1674500, -12.843320
1675000, -15.074208
1675500, -17.278890
1676000, -19.454213
1676500, -21.596130
1677000, -23.705509
1677500, -25.782094
1678000, -27.830349
1678500, -29.853483
1679000, -31.859307
1679500, -33.854231
1680000, -35.849028
1680500, -37.852662
1681000, -39.877790
1681500, -41.934195
1682000, -44.033699
1682500, -46.182757
1683000, -48.386118
1683500, -50.638427
1684000, -52.927204
1684500, -55.224232
1685000, -57.489070
1685500, -59.665748
1686000, -61.694460
1686500, -63.515063
1687000, -65.084165
1687500, -66.377904
1688000, -67.399508
1688500, -68.169962
1689000, -68.725802
1689500, -69.105023
1690000, -69.347008
1690500, -69.483148
1691000, -69.541599
1691500, -69.541573
1692000, -69.500052
1692500, -69.426967
1693000, -69.332036
1693500, -69.219721
1694000, -69.095720
1694500, -68.961597
1695000, -68.820972
1695500, -68.673935
1696000, -68.523064
1696500, -68.367713
1697000, -68.209940
1697500, -68.048730
1698000, -67.885879
1698500, -67.720184
1699000, -67.553300
1699500, -67.383934
1700000, -67.213672
1700500, -67.041175
1701000, -66.867995
1701500, -66.692762
1702000, -66.517005
1702500, -66.339343
1703000, -66.161298
1703500, -65.981488
1704000, -65.801429
1704500, -65.619726
1705000, -65.437887
1705500, -65.254521
1706000, -65.071140
1706500, -64.886358
1707000, -64.701675
1707500, -64.515696
1708000, -64.329918
1708500, -64.142955
1709000, -63.956311
1709500, -63.768597
1710000, -63.581296
1710500, -63.393009
1711000, -63.205229
1711500, -63.016569
1712000, -62.828525
1712500, -62.639683
1713000, -62.451514
1713500, -62.262616
1714000, -62.074472
1714500, -61.885691
1715000, -61.697731
1715500, -61.509166
1716000, -61.321452
1716500, -61.133181
1717000, -60.945820
1717500, -60.757957
1718000, -60.571006
1718500, -60.383529
1719000, -60.196963
1719500, -60.009893
1720000, -59.823771
1720500, -59.637115
1721000, -59.451318
1721500, -59.264927
1722000, -59.079363
1722500, -58.893196
1723000, -58.707803
1723500, -58.521675
1724000, -58.336178
1724500, -58.149844
1725000, -57.964068
1725500, -57.777385
1726000, -57.591079
1726500, -57.403616
1727000, -57.216332
1727500, -57.027737
1728000, -56.839201
1728500, -56.649118
1729000, -56.458731
1729500, -56.266472
1730000, -56.073637
1730500, -55.878703
1731000, -55.682870
1731500, -55.484449
1732000, -55.284621
1732500, -55.081766
1733000, -54.877117
1733500, -54.668935
1734000, -54.458232
1734500, -54.243235
1735000, -54.025026
1735500, -53.801886
1736000, -53.574630
1736500, -53.341257
1737000, -53.102621
1737500, -52.856780
1738000, -52.604374
1738500, -52.343060
1739000, -52.073346
1739500, -51.792933
1740000, -51.501925
1740500, -51.197470
1741000, -50.879524
1741500, -50.544948
1742000, -50.192910
1742500, -49.819724
1743000, -49.424005
1743500, -49.000956
1744000, -48.548428
1744500, -48.060129
1745000, -47.532292
1745500, -46.956779
1746000, -46.327485
1746500, -45.633352
1747000, -44.864374
1747500, -44.005390
1748000, -43.040884
1748500, -41.948523
1749000, -40.704118
1749500, -39.274923
1750000, -37.624565
1750500, -35.706736
1751000, -33.471063
1751500, -30.859813
1752000, -27.819308
1752500, -24.306714
1753000, -20.316168
1753500, -15.902239
1754000, -11.216361
1754500, -6.516711
1755000, -2.145909
1755500, 1.552783
1756000, 4.326956
1756500, 6.082180
1757000, 6.868444
1757500, 6.829432
1758000, 6.135498
1758500, 4.948565
1759000, 3.399835
1759500, 1.593577
1760000, -0.393665
1760500, -2.502049
1761000, -4.689113
1761500, -6.920533
1762000, -9.172957
1762500, -11.426774
1763000, -13.669986
1763500, -15.891551
1764000, -18.086234
1764500, -20.248781
1765000, -22.378956
1765500, -24.475514
1766000, -26.541708
1766500, -28.579755
1767000, -30.596299
1767500, -32.596852
1768000, -34.591192
1768500, -36.587681
1769000, -38.598457
1769500, -40.633444
1770000, -42.705064
1770500, -44.821585
1771000, -46.990941
1771500, -49.213005
1772000, -51.481630
1772500, -53.776799
1773000, -56.067749
1773500, -58.306606
1774000, -60.436384
1774500, -62.394047
1775000, -64.126245
1775500, -65.594481
1776000, -66.786527
1776500, -67.711388
1777000, -68.398467
1777500, -68.883943
1778000, -69.208682
1778500, -69.407599
1779000, -69.512685
1779500, -69.546976
1780000, -69.530485
1780500, -69.475724
1781000, -69.394179
1781500, -69.291800
1782000, -69.175181
1782500, -69.046705
1783000, -68.910398
1783500, -68.766814
1784000, -68.618681
1784500, -68.465638
1785000, -68.309763
1785500, -68.150240
1786000, -67.988822
1786500, -67.824459
1787000, -67.658736
1787500, -67.490483
1788000, -67.321202
1788500, -67.149669
1789000, -66.977339
1789500, -66.802958
1790000, -66.627953
1790500, -66.451051
1791000, -66.273670
1791500, -66.094533
1792000, -65.915053
1792500, -65.733948
1793000, -65.552616
1793500, -65.369774
1794000, -65.186825
1794500, -65.002487
1795000, -64.818168
1795500, -64.632571
1796000, -64.447089
1796500, -64.260437
1797000, -64.074014
1797500, -63.886540
1798000, -63.699402
1798500, -63.511301
1799000, -63.323624
1799500, -63.135083
1800000, -62.947071
1800500, -62.758299
1801000, -62.570129
1801500, -62.381257
1802000, -62.193060
1802500, -62.004247
1803000, -61.816201
1803500, -61.627593
1804000, -61.439770
1804500, -61.251422
1805000, -61.063911
1805500, -60.875942
1806000, -60.688843
1806500, -60.501271
1807000, -60.314555
1807500, -60.127375
1808000, -59.941077
1808500, -59.754333
1809000, -59.568419
1809500, -59.381976
1810000, -59.196314
1810500, -59.010100
1811000, -58.824663
1811500, -58.638590
1812000, -58.453130
1812500, -58.266908
1813000, -58.081210
1813500, -57.894688
1814000, -57.708578
1814500, -57.521429
1815000, -57.334461
1815500, -57.146274
1816000, -56.958127
1816500, -56.768615
1817000, -56.578857
1817500, -56.387369
1818000, -56.195329
1818500, -56.001306
1819000, -55.806517
1819500, -55.609352
1820000, -55.410870
1820500, -55.209535
1821000, -55.006464
1821500, -54.800171
1822000, -54.591547
1822500, -54.378897
1823000, -54.163185
1823500, -53.942780
1824000, -53.718608
1824500, -53.488736
1825000, -53.253897
1825500, -53.012237
1826000, -52.764538
1826500, -52.508557
1827000, -52.244686
1827500, -51.970723
1828000, -51.687029
1828500, -51.390840
1829000, -51.082020
1829500, -50.757810
1830000, -50.417495
1830500, -50.057527
1831000, -49.676900
1831500, -49.271140
1832000, -48.838107
1832500, -48.372488
1833000, -47.870593
1833500, -47.325503
1834000, -46.731433
1834500, -46.078783
1835000, -45.358902
1835500, -44.557999
1836000, -43.662389
1836500, -42.652468
1837000, -41.507037
1837500, -40.197229
1838000, -38.690848
1838500, -36.946165
1839000, -34.916891
1839500, -32.547773
1840000, -29.783357
1840500, -26.570479
1841000, -22.878821
1841500, -18.719196
1842000, -14.180914
1842500, -9.453388
1843000, -4.833886
1843500, -0.674733
1844000, 2.701925
1844500, 5.100568
1845000, 6.483158
1845500, 6.943719
1846000, 6.640842
1846500, 5.746619
1847000, 4.410892
1847500, 2.756217
1848000, 0.874332
1848500, -1.163450
1849000, -3.305936
1849500, -5.512462
1850000, -7.754713
1850500, -10.009220
1851000, -12.260787
1851500, -14.496474
1852000, -16.709183
1852500, -18.892042
1853000, -21.043116
1853500, -23.160114
1854000, -25.245322
1854500, -27.300041
1855000, -29.329765
1855500, -31.339073
1856000, -33.336682
1856500, -35.330225
1857000, -37.331131
1857500, -39.349162
1858000, -41.396909
1858500, -43.483782
1859000, -45.619745
1859500, -47.808338
1860000, -50.049307
1860500, -52.330448
1861000, -54.629127
1861500, -56.906380
1862000, -59.112400
1862500, -61.185302
1863000, -63.065702
1863500, -64.703035
1864000, -66.069511
1864500, -67.159825
1865000, -67.992943
1865500, -68.600235
1866000, -69.021924
1866500, -69.295572
1867000, -69.456787
1867500, -69.532633
1868000, -69.546546
1868500, -69.514023
1869000, -69.448689
1869500, -69.358265
1870000, -69.250471
1870500, -69.128668
1871000, -68.997415
1871500, -68.857812
1872000, -68.712802
1872500, -68.562343
1873000, -68.408577
1873500, -68.250892
1874000, -68.091026
1874500, -67.928083
1875000, -67.763592
1875500, -67.596510
1876000, -67.428261
1876500, -67.257732
1877000, -67.086292
1877500, -66.912792
1878000, -66.738571
1878500, -66.562455
1879000, -66.385767
1879500, -66.207328
1880000, -66.028456
1880500, -65.847969
1881000, -65.667174
1881500, -65.484877
1882000, -65.302388
1882500, -65.118518
1883000, -64.934579
1883500, -64.749381
1884000, -64.564218
1884500, -64.377898
1885000, -64.191721
1885500, -64.004504
1886000, -63.817550
1886500, -63.629655
1887000, -63.442104
1887500, -63.253705
1888000, -63.065751
1888500, -62.877058
1889000, -62.688902
1889500, -62.500070
1890000, -62.311839
1890500, -62.123012
1891000, -61.934873
1891500, -61.746218
1892000, -61.558291
1892500, -61.369872
1893000, -61.182224
1893500, -60.994143
1894000, -60.806899
1894500, -60.619235
1895000, -60.432378
1895500, -60.245096
1896000, -60.058637
1896500, -59.871787
1897000, -59.685749
1897500, -59.499248
1898000, -59.313490
1898500, -59.127229
1899000, -58.941696
1899500, -58.755632
1900000, -58.570181
1900500, -58.384047
1901000, -58.198412
1901500, -58.012015
1902000, -57.826065
1902500, -57.639199
1903000, -57.452526
1903500, -57.264728
1904000, -57.076958
1904500, -56.887935
1905000, -56.698741
1905500, -56.507966
1906000, -56.316678
1906500, -56.123523
1907000, -55.929616
1907500, -55.733567
1908000, -55.536315
1908500, -55.336397
1909000, -55.134820
1909500, -54.930178
1910000, -54.723430
1910500, -54.512944
1911000, -54.299570
1911500, -54.081751
1912000, -53.860393
1912500, -53.633771
1913000, -53.402497
1913500, -53.164792
1914000, -52.921332
1914500, -52.670244
1915000, -52.411797
1915500, -52.143872
1916000, -51.866787
1916500, -51.578178
1917000, -51.277806
1917500, -50.963013
1918000, -50.633465
1918500, -50.285723
1919000, -49.918731
1919500, -49.528753
1920000, -49.113633
1920500, -48.668662
1921000, -48.190529
1921500, -47.672935
1922000, -47.110822
1922500, -46.495714
1923000, -45.819662
1923500, -45.070754
1924000, -44.237056
1924500, -43.301053
1925000, -42.244133
1925500, -41.040865
1926000, -39.662906
1926500, -38.072895
1927000, -36.229008
1927500, -34.079859
1928000, -31.571034
1928500, -28.645261
1929000, -25.257173
1929500, -21.386857
1930000, -17.072165
1930500, -12.435079
1931000, -7.709072
1931500, -3.218443
1932000, 0.682201
1932500, 3.710679
1933000, 5.728012
1933500, 6.752970
1934000, 6.909683
1934500, 6.368531
1935000, 5.294072
1935500, 3.827894
1936000, 2.079111
1936500, 0.132711
1937000, -1.949607
1937500, -4.119417
1938000, -6.342512
1938500, -8.591169
1939000, -10.846711
1939500, -13.093249
1940000, -15.321497
1940500, -17.523212
1941000, -19.694983
1941500, -21.833227
1942000, -23.938724
1942500, -26.011732
1943000, -28.056672
1943500, -30.077355
1944000, -32.081466
1944500, -34.075833
1945000, -36.071045
1945500, -38.076462
1946000, -40.104505
1946500, -42.165213
1947000, -44.269887
1947500, -46.424805
1948000, -48.633833
1948500, -50.891058
1949000, -53.182554
1949500, -55.478259
1950000, -57.736042
1950500, -59.899400
1951000, -61.907990
1951500, -63.702787
1952000, -65.242082
1952500, -66.504987
1953000, -67.497210
1953500, -68.241867
1954000, -68.776065
1954500, -69.138193
1955000, -69.366882
1955500, -69.493159
1956000, -69.544188
1956500, -69.538851
1957000, -69.493326
1957500, -69.417443
1958000, -69.320328
1958500, -69.206521
1959000, -69.081271
1959500, -68.946322
1960000, -68.804925
1960500, -68.657405
1961000, -68.506008
1961500, -68.350353
1962000, -68.192186
1962500, -68.030772
1963000, -67.867601
1963500, -67.701757
1964000, -67.534598
1964500, -67.365118
1965000, -67.194611
1965500, -67.022025
1966000, -66.848622
1966500, -66.673319
1967000, -66.497355
1967500, -66.319640
1968000, -66.141404
1968500, -65.961555
1969000, -65.781318
1969500, -65.599589
1970000, -65.417585
1970500, -65.234207
1971000, -65.050674
1971500, -64.865894
1972000, -64.681073
1972500, -64.495105
1973000, -64.309201
1973500, -64.122263
1974000, -63.935505
1974500, -63.747827
1975000, -63.560421
1975500, -63.372180
1976000, -63.184308
1976500, -62.995705
1977000, -62.807580
1977500, -62.618805
1978000, -62.430561
1978500, -62.241738
1979000, -62.053528
1979500, -61.864832
1980000, -61.676813
1980500, -61.488334
1981000, -61.300564
1981500, -61.112385
1982000, -60.924977
1982500, -60.737207
1983000, -60.550204
1983500, -60.362819
1984000, -60.176204
1984500, -59.989229
1985000, -59.803058
1985500, -59.616492
1986000, -59.430638
1986500, -59.244332
1987000, -59.058708
1987500, -58.872626
1988000, -58.687164
1988500, -58.501102
1989000, -58.315522
1989500, -58.129244
1990000, -57.943379
1990500, -57.756733
1991000, -57.570309
1991500, -57.382860
1992000, -57.195440
1992500, -57.006846
1993000, -56.818163
1993500, -56.628052
1994000, -56.437477
1994500, -56.245156
1995000, -56.052103
1995500, -55.857083
1996000, -55.660988
1996500, -55.462419
1997000, -55.262276
1997500, -55.059226
1998000, -54.854220
1998500, -54.645776
1999000, -54.434626
1999500, -54.219285
2000000, -54.000555
2000500, -53.777002
2001000, -53.549121
2001500, -53.315198
2002000, -53.075808
2002500, -52.829296
2003000, -52.575969
2003500, -52.313774
2004000, -52.042938
2004500, -51.761445
2005000, -51.469051
2005500, -51.163190
2006000, -50.843534
2006500, -50.507143
2007000, -50.152902
2007500, -49.777398
2008000, -49.378853
2008500, -48.952736
2009000, -48.496486
2009500, -48.004059
2010000, -47.471368
2010500, -46.890347
2011000, -46.254383
2011500, -45.552614
2012000, -44.774442
2012500, -43.904629
2013000, -42.926984
2013500, -41.819047
2014000, -40.555702
2014500, -39.103850
2015000, -37.426150
2015500, -35.475688
2016000, -33.201148
2016500, -30.544783
2017000, -27.453593
2017500, -23.887582
2018000, -19.845663
2018500, -15.391838
2019000, -10.689746
2019500, -6.008810
2020000, -1.695979
2020500, 1.910188
2021000, 4.573318
2021500, 6.216339
2022000, 6.902926
2022500, 6.782695
2023000, 6.026513
2023500, 4.793444
2024000, 3.211486
2024500, 1.381692
2025000, -0.621609
2025500, -2.740685
2026000, -4.934142
2026500, -7.168935
2027000, -9.422393
2027500, -11.675724
2028000, -13.916986
2028500, -16.135745
2029000, -18.327050
2029500, -20.486223
2030000, -22.612767
2030500, -24.705865
2031000, -26.768690
2031500, -28.803946
2032000, -30.818214
2032500, -32.817481
2033000, -34.811431
2033500, -36.808847
2034000, -38.821685
2034500, -40.860164
2035000, -42.936351
2035500, -45.058566
2036000, -47.233950
2036500, -49.461571
2037000, -51.734145
2037500, -54.030751
2038000, -56.318795
2038500, -58.548466
2039000, -60.662149
2039500, -62.597368
2040000, -64.301851
2040500, -65.739709
2041000, -66.901382
2041500, -67.798417
2042000, -68.461351
2042500, -68.927171
2043000, -69.236340
2043500, -69.423497
2044000, -69.519682
2044500, -69.547534
2045000, -69.526215
2045500, -69.468047
2046000, -69.383890
2046500, -69.279704
2047000, -69.161620
2047500, -69.032156
2048000, -68.894970
2048500, -68.750818
2049000, -68.602107
2049500, -68.448713
2050000, -68.292419
2050500, -68.132663
2051000, -67.970913
2051500, -67.806384
2052000, -67.640380
2052500, -67.472002
2053000, -67.302474
2053500, -67.130841
2054000, -66.958288
2054500, -66.783829
2055000, -66.608618
2055500, -66.431654
2056000, -66.254083
2056500, -66.074899
2057000, -65.895244
2057500, -65.714105
2058000, -65.532611
2058500, -65.349748
2059000, -65.166650
2059500, -64.982305
2060000, -64.797849
2060500, -64.612255
2061000, -64.426649
2061500, -64.240013
2062000, -64.053477
2062500, -63.866032
2063000, -63.678793
2063500, -63.490730
2064000, -63.302962
2064500, -63.114471
2065000, -62.926380
2065500, -62.737666
2066000, -62.549423
2066500, -62.360617
2067000, -62.172355
2067500, -61.983618
2068000, -61.795515
2068500, -61.606986
2069000, -61.419109
2069500, -61.230845
2070000, -61.043288
2070500, -60.855411
2071000, -60.668268
2071500, -60.480784
2072000, -60.294024
2072500, -60.106934
2073000, -59.920595
2073500, -59.733937
2074000, -59.547971
2074500, -59.361608
2075000, -59.175891
2075500, -58.989756
2076000, -58.804261
2076500, -58.618252
2077000, -58.432717
2077500, -58.246549
2078000, -58.060767
2078500, -57.874294
2079000, -57.688083
2079500, -57.500953
2080000, -57.313862
2080500, -57.125677
2081000, -56.937392
2081500, -56.747853
2082000, -56.557916
2082500, -56.366365
2083000, -56.174118
2083500, -55.980007
2084000, -55.784969
2084500, -55.587658
2085000, -55.388875
2085500, -55.187348
2086000, -54.983935
2086500, -54.777393
2087000, -54.568346
2087500, -54.355366
2088000, -54.139156
2088500, -53.918353
2089000, -53.693581
2089500, -53.463177
2090000, -53.227615
2090500, -52.985306
2091000, -52.736745
2091500, -52.479932
2092000, -52.214998
2092500, -51.940005
2093000, -51.654993
2093500, -51.357461
2094000, -51.047010
2094500, -50.721140
2095000, -50.378785
2095500, -50.016656
2096000, -49.633474
2096500, -49.224910
2097000, -48.788548
2097500, -48.319192
2098000, -47.812862
2098500, -47.262715
2099000, -46.662652
2099500, -46.003086
2100000, -45.275016
2100500, -44.464576
2101000, -43.557443
2101500, -42.533842
2102000, -41.371814
2102500, -40.042181
2103000, -38.511841
2103500, -36.738428
2104000, -34.674642
2104500, -32.264990
2105000, -29.453717
2105500, -26.189387
2106000, -22.444643
2106500, -18.237719
2107000, -13.667420
2107500, -8.935783
2108000, -4.348911
2108500, -0.261430
2109000, 3.014832
2109500, 5.301293
2110000, 6.576468
2110500, 6.944912
2111000, 6.569022
2111500, 5.619511
2112000, 4.243405
2112500, 2.559756
2113000, 0.657685
2113500, -1.393913
2114000, -3.545190
2114500, -5.756923
2115000, -8.001433
2115500, -10.256193
2116000, -12.506617
2116500, -14.740189
2117000, -16.949809
2117500, -19.129122
2118000, -21.276468
2118500, -23.390086
2119000, -25.471983
2119500, -27.523844
2120000, -29.551089
2120500, -31.558751
2121000, -33.555476
2121500, -35.549318
2122000, -37.551571
2122500, -39.572316
2123000, -41.623866
2123500, -43.715749
2124000, -45.857381
2124500, -48.052057
2125000, -50.298349
2125500, -52.582630
2126000, -54.880958
2126500, -57.153291
2127000, -59.347729
2127500, -61.402120
2128000, -63.257721
2128500, -64.866085
2129000, -66.202049
2129500, -67.262925
2130000, -68.069510
2130500, -68.654522
2131000, -69.058193
2131500, -69.317977
2132000, -69.468611
2132500, -69.536719
2133000, -69.544845
2133500, -69.508206
2134000, -69.439757
2134500, -69.347158
2135000, -69.237645
2135500, -69.114666
2136000, -68.982407
2136500, -68.842136
2137000, -68.696485
2137500, -68.545622
2138000, -68.391405
2138500, -68.233455
2139000, -68.073242
2139500, -67.910112
2140000, -67.745334
2140500, -67.578111
2141000, -67.409612
2141500, -67.238971
2142000, -67.067307
2142500, -66.893718
2143000, -66.719291
2143500, -66.543103
2144000, -66.366226
2144500, -66.187730
2145000, -66.008684
2145500, -65.828155
2146000, -65.647198
2146500, -65.464872
2147000, -65.282233
2147500, -65.098348
2148000, -64.914274
2148500, -64.729071
2149000, -64.543784
2149500, -64.357470
2150000, -64.171183
2150500, -63.983985
2151000, -63.796931
2151500, -63.609065
2152000, -63.421424
2152500, -63.233065
2153000, -63.045033
2153500, -62.856393
2154000, -62.668167
2154500, -62.479394
2155000, -62.291102
2155500, -62.102342
2156000, -61.914151
2156500, -61.725569
2157000, -61.537592
2157500, -61.349251
2158000, -61.161559
2158500, -60.973562
2159000, -60.786276
2159500, -60.598693
2160000, -60.411793
2160500, -60.224594
2161000, -60.038095
2161500, -59.851333
2162000, -59.665253
2162500, -59.478830
2163000, -59.293024
2163500, -59.106838
2164000, -58.921255
2164500, -58.735256
2165000, -58.549737
2165500, -58.363653
2166000, -58.177941
2166500, -57.991588
2167000, -57.805552
2167500, -57.618708
2168000, -57.431922
2168500, -57.244125
2169000, -57.056226
2169500, -56.867191
2170000, -56.677840
2170500, -56.487012
2171000, -56.295531
2171500, -56.102293
2172000, -55.908169
2172500, -55.711994
2173000, -55.514465
2173500, -55.314367
2174000, -55.112467
2174500, -54.907603
2175000, -54.700465
2175500, -54.489670
2176000, -54.275826
2176500, -54.057625
2177000, -53.835729
2177500, -53.608621
2178000, -53.376676
2178500, -53.138360
2179000, -52.894108
2179500, -52.642246
2180000, -52.382802
2180500, -52.113903
2181000, -51.835627
2181500, -51.545787
2182000, -51.243903
2182500, -50.927561
2183000, -50.596102
2183500, -50.246327
2184000, -49.876931
2184500, -49.484311
2185000, -49.066053
2185500, -48.617672
2186000, -48.135456
2186500, -47.613317
2187000, -47.045754
2187500, -46.424480
2188000, -45.741038
2188500, -44.983468
2189000, -44.139431
2189500, -43.191286
2190000, -42.119715
2190500, -40.899002
2191000, -39.499803
2191500, -37.884278
2192000, -36.009599
2192500, -33.823912
2193000, -31.272240
2193500, -28.297883
2194000, -24.857273
2194500, -20.935219
2195000, -16.577115
2195500, -11.917272
2196000, -7.199827
2196500, -2.756947
2197000, 1.059731
2197500, 3.981279
2198000, 5.886671
2198500, 6.809113
2199000, 6.880802
2199500, 6.273392
2200000, 5.149636
2200500, 3.647599
2201000, 1.873413
2201500, -0.090679
2202000, -2.184669
2202500, -4.361912
2203000, -6.589032
2203500, -8.839299
2204000, -11.094398
2204500, -13.339302
2205000, -15.565019
2205500, -17.763647
2206000, -19.931736
2206500, -22.066164
2207000, -24.167855
2207500, -26.237669
2208000, -28.279934
2208500, -30.298716
2209000, -32.301589
2209500, -34.295770
2210000, -36.291748
2210500, -38.299214
2211000, -40.330377
2211500, -42.395446
2212000, -44.505286
2212500, -46.666041
2213000, -48.880743
2213500, -51.142838
2214000, -53.436450
2214500, -55.730135
2215000, -57.980395
2215500, -60.129999
2216000, -62.117701
2216500, -63.885994
2217000, -65.395363
2217500, -66.627684
2218000, -67.591053
2218500, -68.310524
2219000, -68.823734
2219500, -69.169327
2220000, -69.385215
2220500, -69.501996
2221000, -69.545910
2221500, -69.535465
2222000, -69.486110
2222500, -69.407528
2223000, -69.308326
2223500, -69.193071
2224000, -69.066628
2224500, -68.930869
2225000, -68.788736
2225500, -68.640733
2226000, -68.488836
2226500, -68.332871
2227000, -68.174331
2227500, -68.012701
2228000, -67.849229
2228500, -67.683224
2229000, -67.515806
2229500, -67.346200
2230000, -67.175462
2230500, -67.002775
2231000, -66.829163
2231500, -66.653777
2232000, -66.477621
2232500, -66.299838
2233000, -66.121425
2233500, -65.941524
2234000, -65.761124
2234500, -65.579355
2235000, -65.397201
2235500, -65.213796
2236000, -65.030128
2236500, -64.845334
2237000, -64.660390
2237500, -64.474420
2238000, -64.288405
2238500, -64.101477
2239000, -63.914621
2239500, -63.726965
2240000, -63.539470
2240500, -63.351261
2241000, -63.163310
2241500, -62.974752
2242000, -62.786558
2242500, -62.597832
2243000, -62.409528
2243500, -62.220764
2244000, -62.032504
2244500, -61.843877
2245000, -61.655814
2245500, -61.467407
2246000, -61.279598
2246500, -61.091497
2247000, -60.904055
2247500, -60.716365
2248000, -60.529326
2248500, -60.342020
2249000, -60.155370
2249500, -59.968478
2250000, -59.782268
2250500, -59.595774
2251000, -59.409875
2251500, -59.223637
2252000, -59.037968
2252500, -58.851955
2253000, -58.666438
2253500, -58.480427
2254000, -58.294779
2254500, -58.108543
2255000, -57.922604
2255500, -57.735981
2256000, -57.549452
2256500, -57.362004
2257000, -57.174462
2257500, -56.985853
2258000, -56.797025
2258500, -56.606863
2259000, -56.416105
2259500, -56.223701
2260000, -56.030440
2260500, -55.835315
2261000, -55.638968
2261500, -55.440232
2262000, -55.239785
2262500, -55.036522
2263000, -54.831171
2263500, -54.622445
2264000, -54.410859
2264500, -54.195155
2265000, -53.975914
2265500, -53.751893
2266000, -53.523365
2266500, -53.288848
2267000, -53.048693
2267500, -52.801470
2268000, -52.547213
2268500, -52.284099
2269000, -52.012131
2269500, -51.729518
2270000, -51.435726
2270500, -51.128415
2271000, -50.807032
2271500, -50.468776
2272000, -50.112304
2272500, -49.734423
2273000, -49.333012
2273500, -48.903754
2274000, -48.443721
2274500, -47.947067
2275000, -47.409312
2275500, -46.822546
2276000, -46.179693
2276500, -45.470027
2277000, -44.682394
2277500, -43.801416
2278000, -42.810252
2278500, -41.686178
2279000, -40.403280
2279500, -38.928039
2280000, -37.222107
2280500, -35.237966
2281000, -32.923394
2281500, -30.220690
2282000, -27.077527
2282500, -23.456857
2283000, -19.363902
2283500, -14.872230
2284000, -10.156920
2284500, -5.499032
2285000, -1.249958
2285500, 2.259356
2286000, 4.808777
2286500, 6.339151
2287000, 6.926877
2287500, 6.726758
2288000, 5.909650
2288500, 4.631549
2289000, 3.017274
2289500, 1.164707
2290000, -0.854070
2290500, -2.983344
2291000, -5.182817
2291500, -7.420834
2292000, -9.675180
2292500, -11.927756
2293000, -14.166819
2293500, -16.382807
2294000, -18.570800
2294500, -20.726420
2295000, -22.849130
2295500, -24.938546
2296000, -26.997841
2296500, -29.030158
2297000, -31.042150
2297500, -33.040199
2298000, -35.033898
2298500, -37.032368
2299000, -39.047438
2299500, -41.089574
2300000, -43.170507
2300500, -45.298426
2301000, -47.479660
2301500, -49.712796
2302000, -51.989340
2302500, -54.287295
2303000, -56.571330
2303500, -58.791019
2304000, -60.887930
2304500, -62.800052
2305000, -64.476308
2305500, -65.883438
2306000, -67.014618
2306500, -67.883845
2307000, -68.522808
2307500, -68.969175
2308000, -69.263009
2308500, -69.438589
2309000, -69.526048
2309500, -69.547571
2310000, -69.521530
2310500, -69.460007
2311000, -69.373300
2311500, -69.267326
2312000, -69.147814
2312500, -69.017364
2313000, -68.879323
2313500, -68.734595
2314000, -68.585323
2314500, -68.431567
2315000, -68.274870
2315500, -68.114868
2316000, -67.952801
2316500, -67.788091
2317000, -67.621821
2317500, -67.453301
2318000, -67.283540
2318500, -67.111794
2319000, -66.939030
2319500, -66.764478
2320000, -66.589075
2320500, -66.412034
2321000, -66.234286
2321500, -66.055041
2322000, -65.875225
2322500, -65.694038
2323000, -65.512395
2323500, -65.329497
2324000, -65.146263
2324500, -64.961898
2325000, -64.777318
2325500, -64.591715
2326000, -64.405997
2326500, -64.219363
2327000, -64.032730
2327500, -63.845301
2328000, -63.657974
2328500, -63.469937
2329000, -63.282092
2329500, -63.093637
2330000, -62.905481
2330500, -62.716812
2331000, -62.528510
2331500, -62.339756
2332000, -62.151446
2332500, -61.962771
2333000, -61.774625
2333500, -61.586159
2334000, -61.398243
2334500, -61.210050
2335000, -61.022461
2335500, -60.834663
2336000, -60.647490
2336500, -60.460082
2337000, -60.273291
2337500, -60.086278
2338000, -59.899913
2338500, -59.713328
2339000, -59.527326
2339500, -59.341029
2340000, -59.155272
2340500, -58.969202
2341000, -58.783656
2341500, -58.597694
2342000, -58.412095
2342500, -58.225963
2343000, -58.040111
2343500, -57.853670
2344000, -57.667371
2344500, -57.480246
2345000, -57.293044
2345500, -57.104847
2346000, -56.916438
2346500, -56.726857
2347000, -56.536754
2347500, -56.345126
2348000, -56.152683
2348500, -55.958470
2349000, -55.763192
2349500, -55.565719
2350000, -55.366643
2350500, -55.164907
2351000, -54.961161
2351500, -54.754345
2352000, -54.544876
2352500, -54.331542
2353000, -54.114838
2353500, -53.893613
2354000, -53.668245
2354500, -53.437285
2355000, -53.201003
2355500, -52.958020
2356000, -52.708576
2356500, -52.450884
2357000, -52.184870
2357500, -51.908805
2358000, -51.622457
2358500, -51.323536
2359000, -51.011433
2359500, -50.683852
2360000, -50.339430
2360500, -49.975080
2361000, -49.589252
2361500, -49.177766
2362000, -48.737982
2362500, -48.264761
2363000, -47.753886
2363500, -47.198528
2364000, -46.592325
2364500, -45.925645
2365000, -45.189004
2365500, -44.368606
2366000, -43.449520
2366500, -42.411727
2367000, -41.232540
2367500, -39.882397
2368000, -38.327170
2368500, -36.523944
2369000, -34.424427
2369500, -31.972834
2370000, -29.113235
2370500, -25.795907
2371000, -21.997409
2371500, -17.742819
2372000, -13.142140
2372500, -8.409681
2373000, -3.861103
2373500, 0.149402
2374000, 3.321068
2374500, 5.492594
2375000, 6.659554
2375500, 6.936217
2376000, 6.488062
2376500, 5.484103
2377000, 4.068339
2377500, 2.356335
2378000, 0.434563
2378500, -1.630429
2379000, -3.790163
2379500, -6.006792
2380000, -8.253319
2380500, -10.508390
2381000, -12.757512
2381500, -14.988714
2382000, -17.195008
2382500, -19.370920
2383000, -21.514667
2383500, -23.624752
2384000, -25.703144
2384500, -27.751936
2385000, -29.776556
2385500, -31.782450
2386000, -33.778256
2386500, -35.772395
2387000, -37.776084
2387500, -39.799666
2388000, -41.855226
2388500, -43.952349
2389000, -46.099933
2389500, -48.300730
2390000, -50.551937
2390500, -52.839164
2391000, -55.136956
2391500, -57.403449
2392000, -59.585173
2392500, -61.620102
2393000, -63.450097
2393500, -65.028823
2394000, -66.333783
2394500, -67.364961
2395000, -68.144973
2395500, -68.707760
2396000, -69.093549
2396500, -69.339593
2397000, -69.479784
2397500, -69.540245
2398000, -69.542675
2398500, -69.501965
2399000, -69.430456
2399500, -69.335697
2400000, -69.224497
2400500, -69.100342
2401000, -68.967098
2401500, -68.826152
2402000, -68.679874
2402500, -68.528595
2403000, -68.373940
2403500, -68.215712
2404000, -68.055164
2404500, -67.891833
2405000, -67.726779
2405500, -67.559401
2406000, -67.390662
2406500, -67.219896
2407000, -67.048018
2407500, -66.874326
2408000, -66.699706
2408500, -66.523432
2409000, -66.346376
2409500, -66.167810
2410000, -65.988600
2410500, -65.808016
2411000, -65.626908
2411500, -65.444539
2412000, -65.261764
2412500, -65.077849
2413000, -64.893652
2413500, -64.708432
2414000, -64.523033
2414500, -64.336714
2415000, -64.150328
2415500, -63.963138
2416000, -63.775996
2416500, -63.588147
2417000, -63.400428
2417500, -63.212097
2418000, -63.024000
2418500, -62.835401
2419000, -62.647119
2419500, -62.458393
2420000, -62.270052
2420500, -62.081348
2421000, -61.893120
2421500, -61.704599
2422000, -61.516586
2422500, -61.328310
2423000, -61.140588
2423500, -60.952664
2424000, -60.765349
2424500, -60.577836
2425000, -60.390906
2425500, -60.203779
2426000, -60.017255
2426500, -59.830569
2427000, -59.644460
2427500, -59.458103
2428000, -59.272262
2428500, -59.086139
2429000, -58.900521
2429500, -58.714574
2430000, -58.529001
2430500, -58.342955
2431000, -58.157178
2431500, -57.970857
2432000, -57.784737
2432500, -57.597895
2433000, -57.411003
2433500, -57.223190
2434000, -57.035171
2434500, -56.846110
2435000, -56.656611
2435500, -56.465714
2436000, -56.274050
2436500, -56.080715
2437000, -55.886385
2437500, -55.690068
2438000, -55.492271
2438500, -55.291978
2439000, -55.089762
2439500, -54.884662
2440000, -54.677142
2440500, -54.466020
2441000, -54.251712
2441500, -54.033109
2442000, -53.810682
2442500, -53.583068
2443000, -53.350454
2443500, -53.111504
2444000, -52.866463
2444500, -52.613800
2445000, -52.353357
2445500, -52.083457
2446000, -51.803982
2446500, -51.512877
2447000, -51.209471
2447500, -50.891540
2448000, -50.558151
2448500, -50.206296
2449000, -49.834468
2449500, -49.439146
2450000, -49.017710
2450500, -48.565846
2451000, -48.079489
2451500, -47.552711
2452000, -46.979615
2452500, -46.352002
2453000, -45.661010
2453500, -44.894570
2454000, -44.039809
2454500, -43.079103
2455000, -41.992454
2455500, -40.753780
2456000, -39.332701
2456500, -37.690912
2457000, -35.784559
2457500, -33.561331
2458000, -30.965756
2458500, -27.941684
2459000, -24.447594
2459500, -20.473939
2460000, -16.074442
2460500, -11.394257
2461000, -6.689973
2461500, -2.299839
2462000, 1.428832
2462500, 4.240954
2463000, 6.033827
2463500, 6.854850
2464000, 6.843276
2464500, 6.171430
2465000, 4.999925
2465500, 3.463289
2466000, 1.664655
2466500, -0.316428
2467000, -2.421629
2467500, -4.605877
2468000, -6.836643
2468500, -9.088171
2469000, -11.342678
2469500, -13.585948
2470000, -15.808980
2470500, -18.004303
2471000, -20.168540
2471500, -22.299359
2472000, -24.397616
2472500, -26.464371
2473000, -28.503902
2473500, -30.520650
2474000, -32.522193
2474500, -34.516114
2475000, -36.512858
2475500, -38.522400
2476000, -40.556785
2476500, -42.626336
2477000, -44.741519
2477500, -46.908280
2478000, -49.128834
2478500, -51.395491
2479000, -53.690684
2479500, -55.981976
2480000, -58.224358
2480500, -60.358938
2481000, -62.324692
2481500, -64.065700
2482000, -65.544800
2482500, -66.746650
2483000, -67.681586
2483500, -68.376404
2484000, -68.869200
2484500, -69.198760
2485000, -69.402292
2485500, -69.509906
2486000, -69.546977
2486500, -69.531606
2487000, -69.478574
2487500, -69.397383
2488000, -69.296179
2488500, -69.179516
2489000, -69.051930
2489500, -68.915377
2490000, -68.772538
2490500, -68.624055
2491000, -68.471681
2491500, -68.315402
2492000, -68.156507
2492500, -67.994654
2493000, -67.830896
2493500, -67.664721
2494000, -67.497059
2494500, -67.327316
2495000, -67.156362
2495500, -66.983563
2496000, -66.809755
2496500, -66.634275
2497000, -66.457940
2497500, -66.280079
2498000, -66.101502
2498500, -65.921538
2499000, -65.740988
2499500, -65.559168
2500000, -65.376877
2500500, -67.346671
2501000, -68.898341
2501500, -70.126293
2502000, -71.097727
2502500, -71.870395
2503000, -72.483284
2503500, -72.972526
2504000, -73.360542
2504500, -73.670711
2505000, -73.915606
2505500, -74.110967
2506000, -74.263422
2506500, -74.384065
2507000, -74.475891
2507500, -74.547137
2508000, -74.598555
2508500, -74.636605
2509000, -74.660635
2509500, -74.675986
2510000, -74.681120
2510500, -74.680665
2511000, -74.672517
2511500, -74.660841
2512000, -74.643169
2512500, -74.623364
2513000, -74.598718
2513500, -74.572895
2514000, -74.543027
2514500, -74.512645
2515000, -74.478776
2515500, -74.444859
2516000, -74.407850
2516500, -74.371126
2517000, -74.331593
2517500, -74.292584
2518000, -74.250975
2518500, -74.210065
2519000, -74.166708
2519500, -74.124181
2520000, -74.079324
2520500, -74.035396
2521000, -73.989227
2521500, -73.944064
2522000, -73.896729
2522500, -73.850460
2523000, -73.802075
2523500, -73.754804
2524000, -73.705464
2524500, -73.657277
2525000, -73.607062
2525500, -73.558034
2526000, -73.507012
2526500, -73.457206
2527000, -73.405436
2527500, -73.354909
2528000, -73.302446
2528500, -73.251250
2529000, -73.198143
2529500, -73.146325
2530000, -73.092619
2530500, -73.040223
2531000, -72.985963
2531500, -72.933032
2532000, -72.878257
2532500, -72.824829
2533000, -72.769577
2533500, -72.715689
2534000, -72.659998
2534500, -72.605688
2535000, -72.549596
2535500, -72.494902
2536000, -72.438446
2536500, -72.383406
2537000, -72.326624
2537500, -72.271275
2538000, -72.214202
2538500, -72.158581
2539000, -72.101256
2539500, -72.045398
2540000, -71.987857
2540500, -71.931798
2541000, -71.874073
2541500, -71.817845
2542000, -71.759966
2542500, -71.703599
2543000, -71.645599
2543500, -71.589126
2544000, -71.531039
2544500, -71.474494
2545000, -71.416352
2545500, -71.359767
2546000, -71.301604
2546500, -71.245014
2547000, -71.186863
2547500, -71.130300
2548000, -71.072193
2548500, -71.015689
2549000, -70.957659
2549500, -70.901244
2550000, -70.843315
2550500, -70.787012
2551000, -70.729208
2551500, -70.673041
2552000, -70.615389
2552500, -70.559386
2553000, -70.501912
2553500, -70.446100
2554000, -70.388833
2554500, -70.333239
2555000, -70.276205
2555500, -70.220858
2556000, -70.164085
2556500, -70.109010
2557000, -70.052524
2557500, -69.997748
2558000, -69.941574
2558500, -69.887118
2559000, -69.831271
2559500, -69.777146
2560000, -69.721641
2560500, -69.667865
2561000, -69.612719
2561500, -69.559311
2562000, -69.504544
2562500, -69.451523
2563000, -69.397155
2563500, -69.344542
2564000, -69.290594
2564500, -69.238409
2565000, -69.184900
2565500, -69.133164
2566000, -69.080113
2566500, -69.028845
2567000, -68.976272
2567500, -68.925487
2568000, -68.873401
2568500, -68.823102
2569000, -68.771505
2569500, -68.721697
2570000, -68.670597
2570500, -68.621290
2571000, -68.570698
2571500, -68.521903
2572000, -68.471832
2572500, -68.423563
2573000, -68.374025
2573500, -68.326295
2574000, -68.277304
2574500, -68.230127
2575000, -68.181697
2575500, -68.135086
2576000, -68.087231
2576500, -68.041199
2577000, -67.993930
2577500, -67.948489
2578000, -67.901812
2578500, -67.856955
2579000, -67.810859
2579500, -67.766581
2580000, -67.721065
2580500, -67.677367
2581000, -67.632435
2581500, -67.589322
2582000, -67.544979
2582500, -67.502458
2583000, -67.458711
2583500, -67.416789
2584000, -67.373648
2584500, -67.332334
2585000, -67.289807
2585500, -67.249110
2586000, -67.207205
2586500, -67.167134
2587000, -67.125861
2587500, -67.086424
2588000, -67.045791
2588500, -67.006997
2589000, -66.967012
2589500, -66.928862
2590000, -66.889513
2590500, -66.851990
2591000, -66.813263
2591500, -66.776358
2592000, -66.738248
2592500, -66.701958
2593000, -66.664464
2593500, -66.628789
2594000, -66.591913
2594500, -66.556856
2595000, -66.520602
2595500, -66.486169
2596000, -66.450543
2596500, -66.416738
2597000, -66.381745
2597500, -66.348575
2598000, -66.314220
2598500, -66.281692
2599000, -66.247982
2599500, -66.216100
2600000, -66.183041
2600500, -66.151811
2601000, -66.119409
2601500, -66.088838
2602000, -66.057098
2602500, -66.027190
2603000, -65.996118
2603500, -65.966878
2604000, -65.936468
2604500, -65.907877
2605000, -65.878108
2605500, -65.850149
2606000, -65.821009
2606500, -65.793675
2607000, -65.765158
2607500, -65.738444
2608000, -65.710548
2608500, -65.684455
2609000, -65.657181
2609500, -65.631709
2610000, -65.605060
2610500, -65.580213
2611000, -65.554191
2611500, -65.529971
2612000, -65.504580
2612500, -65.480992
2613000, -65.456235
2613500, -65.433282
2614000, -65.409164
2614500, -65.386850
2615000, -65.363373
2615500, -65.341701
2616000, -65.318869
2616500, -65.297841
2617000, -65.275657
2617500, -65.255278
2618000, -65.233744
2618500, -65.214015
2619000, -65.193134
2619500, -65.174057
2620000, -65.153830
2620500, -65.135407
2621000, -65.115836
2621500, -65.098068
2622000, -65.079153
2622500, -65.062040
2623000, -65.043782
2623500, -65.027325
2624000, -65.009724
2624500, -64.993923
2625000, -64.976975
2625500, -64.961818
2626000, -64.945505
2626500, -64.930972
2627000, -64.915279
2627500, -64.901358
2628000, -64.886274
2628500, -64.872958
2629000, -64.858476
2629500, -64.845758
2630000, -64.831874
2630500, -64.819751
2631000, -64.806460
2631500, -64.794929
2632000, -64.782230
2632500, -64.771287
2633000, -64.759176
2633500, -64.748818
2634000, -64.737293
2634500, -64.727518
2635000, -64.716574
2635500, -64.707379
2636000, -64.697015
2636500, -64.688395
2637000, -64.678605
2637500, -64.670557
2638000, -64.661338
2638500, -64.653857
2639000, -64.645203
2639500, -64.638284
2640000, -64.630191
2640500, -64.623827
2641000, -64.616289
2641500, -64.610475
2642000, -64.603484
2642500, -64.598214
2643000, -64.591764
2643500, -64.587029
2644000, -64.581112
2644500, -64.576905
2645000, -64.571513
2645500, -64.567826
2646000, -64.562950
2646500, -64.559773
2647000, -64.555404
2647500, -64.552729
2648000, -64.548857
2648500, -64.546673
2649000, -64.543288
2649500, -64.541584
2650000, -64.538676
2650500, -64.537441
2651000, -64.534998
2651500, -64.534222
2652000, -64.532232
2652500, -64.531902
2653000, -64.530353
2653500, -64.530457
2654000, -64.529337
2654500, -64.529862
2655000, -64.529158
2655500, -64.530090
2656000, -64.529789
2656500, -64.531116
2657000, -64.531203
2657500, -64.532911
2658000, -64.533373
2658500, -64.535448
2659000, -64.536271
2659500, -64.538698
2660000, -64.539867
2660500, -64.542631
2661000, -64.544132
2661500, -64.547219
2662000, -64.549036
2662500, -64.552431
2663000, -64.554549
2663500, -64.558237
2664000, -64.560642
2664500, -64.564607
2665000, -64.567283
2665500, -64.571510
2666000, -64.574442
2666500, -64.578916
2667000, -64.582087
2667500, -64.586792
2668000, -64.590189
2668500, -64.595110
2669000, -64.598716
2669500, -64.603837
2670000, -64.607637
2670500, -64.612944
2671000, -64.616923
2671500, -64.622400
2672000, -64.626543
2672500, -64.632176
2673000, -64.636467
2673500, -64.642240
2674000, -64.646666
2674500, -64.652564
2675000, -64.657109
2675500, -64.663119
2676000, -64.667770
2676500, -64.673876
2677000, -64.678618
2677500, -64.684808
2678000, -64.689628
2678500, -64.695888
2679000, -64.700771
2679500, -64.707087
2680000, -64.712022
2680500, -64.718382
2681000, -64.723355
2681500, -64.729745
2682000, -64.734744
2682500, -64.741153
2683000, -64.746166
2683500, -64.752582
2684000, -64.757597
2684500, -64.764009
2685000, -64.769015
2685500, -64.775411
2686000, -64.780398
2686500, -64.786769
2687000, -64.791726
2687500, -64.798060
2688000, -64.802977
2688500, -64.809265
2689000, -64.814133
2689500, -64.820367
2690000, -64.825177
2690500, -64.831347
2691000, -64.836090
2691500, -64.842188
2692000, -64.846857
2692500, -64.852876
2693000, -64.857462
2693500, -64.863394
2694000, -64.867891
2694500, -64.873728
2695000, -64.878130
2695500, -64.883867
2696000, -64.888166
2696500, -64.893797
2697000, -64.897988
2697500, -64.903508
2698000, -64.907586
2698500, -64.912988
2699000, -64.916949
2699500, -64.922230
2700000, -64.926067
2700500, -64.931223
2701000, -64.934934
2701500, -64.939961
2702000, -64.943542
2702500, -64.948436
2703000, -64.951884
2703500, -64.956642
2704000, -64.959955
2704500, -64.964575
2705000, -64.967749
2705500, -64.972229
2706000, -64.975263
2706500, -64.979601
2707000, -64.982493
2707500, -64.986687
2708000, -64.989437
2708500, -64.993486
2709000, -64.996092
2709500, -64.999996
2710000, -65.002457
2710500, -65.006214
2711000, -65.008528
2711500, -65.012134
2712000, -65.014297
2712500, -65.017750
2713000, -65.019761
2713500, -65.023061
2714000, -65.024920
2714500, -65.028067
2715000, -65.029774
2715500, -65.032769
2716000, -65.034326
2716500, -65.037171
2717000, -65.038580
2717500, -65.041276
2718000, -65.042539
2718500, -65.045089
2719000, -65.046208
2719500, -65.048614
2720000, -65.049592
2720500, -65.051858
2721000, -65.052698
2721500, -65.054826
2722000, -65.055530
2722500, -65.057524
2723000, -65.058096
2723500, -65.059958
2724000, -65.060402
2724500, -65.062136
2725000, -65.062455
2725500, -65.064064
2726000, -65.064261
2726500, -65.065749
2727000, -65.065828
2727500, -65.067199
2728000, -65.067163
2728500, -65.068420
2729000, -65.068274
2729500, -65.069421
2730000, -65.069168
2730500, -65.070209
2731000, -65.069853
2731500, -65.070792
2732000, -65.070336
2732500, -65.071176
2733000, -65.070625
2733500, -65.071371
2734000, -65.070728
2734500, -65.071383
2735000, -65.070653
2735500, -65.071221
2736000, -65.070407
2736500, -65.070892
2737000, -65.069998
2737500, -65.070404
2738000, -65.069433
2738500, -65.069764
2739000, -65.068722
2739500, -65.068980
2740000, -65.067870
2740500, -65.068061
2741000, -65.066885
2741500, -65.067012
2742000, -65.065775
2742500, -65.065842
2743000, -65.064548
2743500, -65.064558
2744000, -65.063210
2744500, -65.063166
2745000, -65.061768
2745500, -65.061675
2746000, -65.060230
2746500, -65.060091
2747000, -65.058602
2747500, -65.058420
2748000, -65.056892
2748500, -65.056670
2749000, -65.055105
2749500, -65.054847
2750000, -65.053248
2750500, -65.052958
2751000, -65.051328
2751500, -65.051008
2752000, -65.049351
2752500, -65.049003
2753000, -65.047322
2753500, -65.046950
2754000, -65.045248
2754500, -65.044855
2755000, -65.043134
2755500, -65.042722
2756000, -65.040985
2756500, -65.040558
2757000, -65.038808
2757500, -65.038367
2758000, -65.036606
2758500, -65.036155
2759000, -65.034386
2759500, -65.033927
2760000, -65.032151
2760500, -65.031686
2761000, -65.029907
2761500, -65.029439
2762000, -65.027658
2762500, -65.027188
2763000, -65.025409
2763500, -65.024939
2764000, -65.023162
2764500, -65.022695
2765000, -65.020923
2765500, -65.020461
2766000, -65.018695
2766500, -65.018239
2767000, -65.016481
2767500, -65.016033
2768000, -65.014285
2768500, -65.013847
2769000, -65.012111
2769500, -65.011683
2770000, -65.009960
2770500, -65.009546
2771000, -65.007837
2771500, -65.007436
2772000, -65.005743
2772500, -65.005358
2773000, -65.003682
2773500, -65.003313
2774000, -65.001655
2774500, -65.001304
2775000, -64.999665
2775500, -64.999333
2776000, -64.997714
2776500, -64.997400
2777000, -64.995801
2777500, -64.995506
2778000, -64.993926
2778500, -64.993650
2779000, -64.992091
2779500, -64.991834
2780000, -64.990295
2780500, -64.990058
2781000, -64.988541
2781500, -64.988324
2782000, -64.986828
2782500, -64.986633
2783000, -64.985160
2783500, -64.984986
2784000, -64.983536
2784500, -64.983384
2785000, -64.981957
2785500, -64.981828
2786000, -64.980425
2786500, -64.980319
2787000, -64.978941
2787500, -64.978859
2788000, -64.977506
2788500, -64.977447
2789000, -64.976119
2789500, -64.976085
2790000, -64.974782
2790500, -64.974772
2791000, -64.973495
2791500, -64.973510
2792000, -64.972259
2792500, -64.972298
2793000, -64.971073
2793500, -64.971138
2794000, -64.969938
2794500, -64.970028
2795000, -64.968855
2795500, -64.968969
2796000, -64.967822
2796500, -64.967961
2797000, -64.966840
2797500, -64.967004
2798000, -64.965909
2798500, -64.966098
2799000, -64.965028
2799500, -64.965242
2800000, -64.964197
2800500, -64.964435
2801000, -64.963417
2801500, -64.963679
2802000, -64.962685
2802500, -64.962971
2803000, -64.962002
2803500, -64.962311
2804000, -64.961367
2804500, -64.961699
2805000, -64.960779
2805500, -64.961134
2806000, -64.960238
2806500, -64.960616
2807000, -64.959742
2807500, -64.960142
2808000, -64.959292
2808500, -64.959714
2809000, -64.958886
2809500, -64.959328
2810000, -64.958522
2810500, -64.958986
2811000, -64.958201
2811500, -64.958685
2812000, -64.957921
2812500, -64.958424
2813000, -64.957681
2813500, -64.958204
2814000, -64.957480
2814500, -64.958021
2815000, -64.957317
2815500, -64.957876
2816000, -64.957191
2816500, -64.957767
2817000, -64.957100
2817500, -64.957693
2818000, -64.957043
2818500, -64.957652
2819000, -64.957020
2819500, -64.957645
2820000, -64.957028
2820500, -64.957668
2821000, -64.957068
2821500, -64.957722
2822000, -64.957137
2822500, -64.957804
2823000, -64.957234
2823500, -64.957915
2824000, -64.957358
2824500, -64.958051
2825000, -64.957507
2825500, -64.958213
2826000, -64.957682
2826500, -64.958399
2827000, -64.957879
2827500, -64.958607
2828000, -64.958099
2828500, -64.958836
2829000, -64.958339
2829500, -64.959086
2830000, -64.958599
2830500, -64.959355
2831000, -64.958878
2831500, -64.959641
2832000, -64.959173
2832500, -64.959945
2833000, -64.959484
2833500, -64.960263
2834000, -64.959811
2834500, -64.960596
2835000, -64.960151
2835500, -64.960941
2836000, -64.960503
2836500, -64.961299
2837000, -64.960867
2837500, -64.961668
2838000, -64.961241
2838500, -64.962046
2839000, -64.961624
2839500, -64.962433
2840000, -64.962015
2840500, -64.962827
2841000, -64.962414
2841500, -64.963229
2842000, -64.962819
2842500, -64.963636
2843000, -64.963229
2843500, -64.964047
2844000, -64.963643
2844500, -64.964463
2845000, -64.964060
2845500, -64.964881
2846000, -64.964480
2846500, -64.965301
2847000, -64.964902
2847500, -64.965723
2848000, -64.965324
2848500, -64.966144
2849000, -64.965746
2849500, -64.966566
2850000, -64.966167
2850500, -64.966986
2851000, -64.966587
2851500, -64.967404
2852000, -64.967005
2852500, -64.967820
2853000, -64.967419
2853500, -64.968232
2854000, -64.967830
2854500, -64.968640
2855000, -64.968237
2855500, -64.969044
2856000, -64.968639
2856500, -64.969443
2857000, -64.969035
2857500, -64.969836
2858000, -64.969426
2858500, -64.970223
2859000, -64.969810
2859500, -64.970604
2860000, -64.970188
2860500, -64.970977
2861000, -64.970558
2861500, -64.971343
2862000, -64.970921
2862500, -64.971701
2863000, -64.971275
2863500, -64.972051
2864000, -64.971621
2864500, -64.972392
2865000, -64.971959
2865500, -64.972725
2866000, -64.972287
2866500, -64.973048
2867000, -64.972606
2867500, -64.973362
2868000, -64.972916
2868500, -64.973666
2869000, -64.973216
2869500, -64.973961
2870000, -64.973506
2870500, -64.974245
2871000, -64.973786
2871500, -64.974519
2872000, -64.974055
2872500, -64.974784
2873000, -64.974315
2873500, -64.975037
2874000, -64.974564
2874500, -64.975281
2875000, -64.974802
2875500, -64.975513
2876000, -64.975030
2876500, -64.975736
2877000, -64.975248
2877500, -64.975947
2878000, -64.975455
2878500, -64.976148
2879000, -64.975651
2879500, -64.976339
2880000, -64.975837
2880500, -64.976519
2881000, -64.976012
2881500, -64.976689
2882000, -64.976178
2882500, -64.976849
2883000, -64.976332
2883500, -64.976998
2884000, -64.976477
2884500, -64.977137
2885000, -64.976611
2885500, -64.977266
2886000, -64.976736
2886500, -64.977385
2887000, -64.976851
2887500, -64.977494
2888000, -64.976956
2888500, -64.977594
2889000, -64.977051
2889500, -64.977684
2890000, -64.977138
2890500, -64.977766
2891000, -64.977215
2891500, -64.977838
2892000, -64.977283
2892500, -64.977901
2893000, -64.977342
2893500, -64.977956
2894000, -64.977393
2894500, -64.978002
2895000, -64.977436
2895500, -64.978040
2896000, -64.977470
2896500, -64.978070
2897000, -64.977497
2897500, -64.978092
2898000, -64.977516
2898500, -64.978107
2899000, -64.977528
2899500, -64.978115
2900000, -64.977532
2900500, -64.978116
2901000, -64.977530
2901500, -64.978109
2902000, -64.977521
2902500, -64.978097
2903000, -64.977506
2903500, -64.978078
2904000, -64.977485
2904500, -64.978053
2905000, -64.977457
2905500, -64.978023
2906000, -64.977425
2906500, -64.977987
2907000, -64.977387
2907500, -64.977946
2908000, -64.977343
2908500, -64.977899
2909000, -64.977295
2909500, -64.977849
2910000, -64.977243
2910500, -64.977794
2911000, -64.977186
2911500, -64.977734
2912000, -64.977125
2912500, -64.977671
2913000, -64.977061
2913500, -64.977604
2914000, -64.976992
2914500, -64.977534
2915000, -64.976921
2915500, -64.977460
2916000, -64.976846
2916500, -64.977384
2917000, -64.976769
2917500, -64.977305
2918000, -64.976689
2918500, -64.977223
2919000, -64.976607
2919500, -64.977139
2920000, -64.976523
2920500, -64.977054
2921000, -64.976437
2921500, -64.976966
2922000, -64.976349
2922500, -64.976877
2923000, -64.976260
2923500, -64.976787
2924000, -64.976169
2924500, -64.976695
2925000, -64.976078
2925500, -64.976603
2926000, -64.975985
2926500, -64.976509
2927000, -64.975892
2927500, -64.976416
2928000, -64.975799
2928500, -64.976322
2929000, -64.975705
2929500, -64.976227
2930000, -64.975611
2930500, -64.976133
2931000, -64.975517
2931500, -64.976038
2932000, -64.975423
2932500, -64.975945
2933000, -64.975330
2933500, -64.975851
2934000, -64.975237
2934500, -64.975758
2935000, -64.975145
2935500, -64.975666
2936000, -64.975054
2936500, -64.975574
2937000, -64.974963
2937500, -64.975484
2938000, -64.974874
2938500, -64.975395
2939000, -64.974786
2939500, -64.975307
2940000, -64.974699
2940500, -64.975220
2941000, -64.974613
2941500, -64.975134
2942000, -64.974529
2942500, -64.975051
2943000, -64.974446
2943500, -64.974968
2944000, -64.974365
2944500, -64.974888
2945000, -64.974286
2945500, -64.974809
2946000, -64.974209
2946500, -64.974732
2947000, -64.974133
2947500, -64.974657
2948000, -64.974059
2948500, -64.974584
2949000, -64.973988
2949500, -64.974513
2950000, -64.973918
2950500, -64.974443
2951000, -64.973851
2951500, -64.974376
2952000, -64.973785
2952500, -64.974312
2953000, -64.973722
2953500, -64.974249
2954000, -64.973661
2954500, -64.974188
2955000, -64.973602
2955500, -64.974130
2956000, -64.973545
2956500, -64.974074
2957000, -64.973490
2957500, -64.974020
2958000, -64.973438
2958500, -64.973968
2959000, -64.973388
2959500, -64.973919
2960000, -64.973340
2960500, -64.973872
2961000, -64.973295
2961500, -64.973827
2962000, -64.973251
2962500, -64.973784
2963000, -64.973210
2963500, -64.973744
2964000, -64.973171
2964500, -64.973706
2965000, -64.973135
2965500, -64.973670
2966000, -64.973100
2966500, -64.973636
2967000, -64.973068
2967500, -64.973604
2968000, -64.973038
2968500, -64.973574
2969000, -64.973010
2969500, -64.973547
2970000, -64.972984
2970500, -64.973521
2971000, -64.972960
2971500, -64.973498
2972000, -64.972937
2972500, -64.973476
2973000, -64.972917
2973500, -64.973457
2974000, -64.972899
2974500, -64.973439
2975000, -64.972883
2975500, -64.973423
2976000, -64.972869
2976500, -64.973409
2977000, -64.972856
2977500, -64.973397
2978000, -64.972845
2978500, -64.973387
2979000, -64.972836
2979500, -64.973378
2980000, -64.972828
2980500, -64.973371
2981000, -64.972822
2981500, -64.973365
2982000, -64.972818
2982500, -64.973361
2983000, -64.972815
2983500, -64.973358
2984000, -64.972813
2984500, -64.973357
2985000, -64.972813
2985500, -64.973357
2986000, -64.972815
2986500, -64.973358
2987000, -64.972817
2987500, -64.973361
2988000, -64.972821
2988500, -64.973365
2989000, -64.972826
2989500, -64.973370
2990000, -64.972832
2990500, -64.973376
2991000, -64.972839
2991500, -64.973383
2992000, -64.972847
2992500, -64.973391
2993000, -64.972855
2993500, -64.973400
2994000, -64.972865
2994500, -64.973410
2995000, -64.972876
2995500, -64.973420
2996000, -64.972887
2996500, -64.973432
2997000, -64.972900
2997500, -64.973444
2998000, -64.972913
2998500, -64.973457
2999000, -64.972926
2999500, -64.973470
3000000, -64.972940
